Transmission Line And Free Space Method 15.1.16021801
Agilent Technologies,N5230C,MY49000690,A.09.42.22

Ch 1
Ports:, 1 & 2
Measurement Model:, Reflection/Transmission Mu and Epsilon
Sample Holder Type:, Waveguide
Cutoff Frequency:, 6.560010 GHz
Sample Holder Length:, 9.700000 mm
Distance to Sample:, 0.000000 mm
Sample Thickness:, 2.300000 mm
IFBW:, 300.000000 Hz
Power:, 0.000000 dBm
Date:,"Friday, January 01, 1988 03:02:12"
frequency(GHz),e',e'',u',u''
         8.2000,   3.8805,   0.1022,   1.0293,   0.0095
         8.2026,   3.8779,   0.1004,   1.0388,   0.0136
         8.2052,   3.8752,   0.0987,   1.0446,   0.0057
         8.2079,   3.8789,   0.0949,   1.0363,   0.0174
         8.2105,   3.8768,   0.0951,   1.0403,   0.0138
         8.2131,   3.8788,   0.0990,   1.0305,   0.0010
         8.2157,   3.8760,   0.0972,   1.0333,   0.0193
         8.2184,   3.8761,   0.1020,   1.0372,   0.0139
         8.2210,   3.8780,   0.1047,   1.0369,   0.0086
         8.2236,   3.8807,   0.1051,   1.0382,   0.0098
         8.2262,   3.8804,   0.1037,   1.0360,   0.0026
         8.2289,   3.8842,   0.1097,   1.0468,  -0.0005
         8.2315,   3.8777,   0.1040,   1.0320,   0.0097
         8.2341,   3.8714,   0.1034,   1.0414,   0.0038
         8.2367,   3.8755,   0.0977,   1.0336,   0.0066
         8.2394,   3.8755,   0.1083,   1.0455,   0.0049
         8.2420,   3.8858,   0.0991,   1.0358,   0.0105
         8.2446,   3.8785,   0.1004,   1.0363,   0.0061
         8.2472,   3.8894,   0.1077,   1.0379,   0.0092
         8.2499,   3.8833,   0.1051,   1.0374,   0.0069
         8.2525,   3.8710,   0.1005,   1.0408,   0.0003
         8.2551,   3.8734,   0.0974,   1.0432,   0.0084
         8.2577,   3.8769,   0.1057,   1.0354,   0.0041
         8.2604,   3.8825,   0.1035,   1.0375,   0.0061
         8.2630,   3.8808,   0.1073,   1.0317,   0.0069
         8.2656,   3.8774,   0.0984,   1.0431,   0.0054
         8.2682,   3.8850,   0.0964,   1.0357,   0.0151
         8.2709,   3.8770,   0.1071,   1.0339,   0.0001
         8.2735,   3.8762,   0.1037,   1.0382,   0.0036
         8.2761,   3.8834,   0.1019,   1.0325,   0.0074
         8.2787,   3.8776,   0.1075,   1.0367,   0.0028
         8.2814,   3.8795,   0.0982,   1.0363,   0.0089
         8.2840,   3.8807,   0.0943,   1.0418,   0.0123
         8.2866,   3.8799,   0.0996,   1.0413,   0.0020
         8.2892,   3.8830,   0.0921,   1.0357,   0.0141
         8.2919,   3.8825,   0.1003,   1.0472,  -0.0014
         8.2945,   3.8762,   0.0903,   1.0429,   0.0198
         8.2971,   3.8810,   0.0954,   1.0391,   0.0113
         8.2997,   3.8780,   0.0971,   1.0518,   0.0083
         8.3024,   3.8854,   0.0920,   1.0398,   0.0106
         8.3050,   3.8770,   0.0901,   1.0419,   0.0142
         8.3076,   3.8873,   0.0937,   1.0366,   0.0111
         8.3102,   3.8868,   0.0971,   1.0443,  -0.0028
         8.3129,   3.8868,   0.0862,   1.0391,   0.0134
         8.3155,   3.8787,   0.0926,   1.0419,   0.0107
         8.3181,   3.8794,   0.0939,   1.0325,   0.0137
         8.3207,   3.8763,   0.0922,   1.0473,   0.0153
         8.3234,   3.8803,   0.0971,   1.0352,   0.0159
         8.3260,   3.8866,   0.0916,   1.0401,   0.0161
         8.3286,   3.8806,   0.0975,   1.0385,   0.0138
         8.3312,   3.8839,   0.0939,   1.0454,   0.0132
         8.3339,   3.8850,   0.0937,   1.0382,   0.0183
         8.3365,   3.8754,   0.0924,   1.0430,   0.0050
         8.3391,   3.8839,   0.0967,   1.0397,   0.0127
         8.3417,   3.8804,   0.0945,   1.0400,   0.0085
         8.3444,   3.8767,   0.0984,   1.0434,   0.0094
         8.3470,   3.8841,   0.0982,   1.0356,   0.0131
         8.3496,   3.8828,   0.0925,   1.0399,   0.0180
         8.3522,   3.8787,   0.0895,   1.0469,   0.0151
         8.3549,   3.8790,   0.0969,   1.0369,   0.0153
         8.3575,   3.8754,   0.1024,   1.0475,   0.0063
         8.3601,   3.8763,   0.1043,   1.0490,   0.0022
         8.3627,   3.8788,   0.1044,   1.0458,   0.0092
         8.3654,   3.8768,   0.1060,   1.0462,   0.0103
         8.3680,   3.8881,   0.1083,   1.0328,  -0.0042
         8.3706,   3.8830,   0.1097,   1.0423,  -0.0039
         8.3732,   3.8749,   0.1024,   1.0516,   0.0130
         8.3759,   3.8830,   0.1036,   1.0364,   0.0082
         8.3785,   3.8817,   0.1024,   1.0375,   0.0191
         8.3811,   3.8794,   0.1081,   1.0407,   0.0050
         8.3837,   3.8779,   0.1102,   1.0463,   0.0090
         8.3864,   3.8789,   0.1135,   1.0427,   0.0043
         8.3890,   3.8840,   0.1086,   1.0436,  -0.0005
         8.3916,   3.8827,   0.1057,   1.0483,   0.0118
         8.3942,   3.8729,   0.1023,   1.0445,   0.0095
         8.3969,   3.8772,   0.1005,   1.0442,   0.0010
         8.3995,   3.8745,   0.1027,   1.0409,   0.0093
         8.4021,   3.8833,   0.1020,   1.0458,   0.0066
         8.4047,   3.8773,   0.1037,   1.0416,   0.0093
         8.4074,   3.8766,   0.1026,   1.0386,   0.0008
         8.4100,   3.8793,   0.1027,   1.0446,   0.0098
         8.4126,   3.8755,   0.1010,   1.0470,   0.0038
         8.4152,   3.8816,   0.1025,   1.0511,   0.0107
         8.4179,   3.8811,   0.0999,   1.0459,   0.0070
         8.4205,   3.8839,   0.0989,   1.0438,   0.0056
         8.4231,   3.8804,   0.1036,   1.0464,  -0.0005
         8.4257,   3.8786,   0.1034,   1.0428,   0.0019
         8.4284,   3.8767,   0.1002,   1.0488,   0.0036
         8.4310,   3.8777,   0.1020,   1.0469,   0.0138
         8.4336,   3.8834,   0.1005,   1.0382,   0.0136
         8.4362,   3.8781,   0.1012,   1.0398,   0.0188
         8.4389,   3.8803,   0.1016,   1.0492,   0.0082
         8.4415,   3.8841,   0.1019,   1.0406,   0.0050
         8.4441,   3.8805,   0.1028,   1.0379,   0.0089
         8.4467,   3.8803,   0.0993,   1.0405,   0.0124
         8.4494,   3.8787,   0.1014,   1.0510,   0.0090
         8.4520,   3.8838,   0.0971,   1.0334,   0.0077
         8.4546,   3.8792,   0.1013,   1.0441,   0.0096
         8.4572,   3.8812,   0.0993,   1.0390,   0.0069
         8.4599,   3.8825,   0.1035,   1.0342,   0.0036
         8.4625,   3.8833,   0.1045,   1.0447,   0.0051
         8.4651,   3.8824,   0.1010,   1.0489,   0.0074
         8.4677,   3.8812,   0.1022,   1.0427,   0.0043
         8.4704,   3.8790,   0.1001,   1.0393,   0.0028
         8.4730,   3.8865,   0.1042,   1.0472,   0.0249
         8.4756,   3.8832,   0.1068,   1.0464,   0.0147
         8.4782,   3.8811,   0.1014,   1.0414,   0.0046
         8.4809,   3.8804,   0.1020,   1.0387,   0.0049
         8.4835,   3.8772,   0.0987,   1.0436,   0.0061
         8.4861,   3.8815,   0.1068,   1.0419,   0.0129
         8.4887,   3.8817,   0.1054,   1.0401,   0.0060
         8.4914,   3.8796,   0.1003,   1.0469,   0.0032
         8.4940,   3.8820,   0.1050,   1.0491,   0.0123
         8.4966,   3.8830,   0.1028,   1.0427,   0.0131
         8.4992,   3.8789,   0.1052,   1.0394,   0.0156
         8.5019,   3.8785,   0.1062,   1.0420,   0.0041
         8.5045,   3.8783,   0.1026,   1.0405,   0.0026
         8.5071,   3.8823,   0.1031,   1.0431,   0.0027
         8.5097,   3.8808,   0.1045,   1.0351,   0.0026
         8.5124,   3.8825,   0.1058,   1.0491,   0.0156
         8.5150,   3.8808,   0.1052,   1.0403,  -0.0010
         8.5176,   3.8824,   0.1047,   1.0440,   0.0148
         8.5202,   3.8788,   0.1043,   1.0395,   0.0062
         8.5229,   3.8830,   0.1053,   1.0387,   0.0042
         8.5255,   3.8825,   0.1015,   1.0350,  -0.0012
         8.5281,   3.8835,   0.1033,   1.0430,  -0.0007
         8.5307,   3.8833,   0.1027,   1.0428,   0.0101
         8.5334,   3.8812,   0.1025,   1.0429,  -0.0026
         8.5360,   3.8815,   0.1037,   1.0285,   0.0039
         8.5386,   3.8797,   0.1025,   1.0367,   0.0044
         8.5412,   3.8802,   0.1058,   1.0428,   0.0046
         8.5439,   3.8802,   0.1045,   1.0448,   0.0057
         8.5465,   3.8817,   0.1070,   1.0447,   0.0081
         8.5491,   3.8826,   0.1031,   1.0423,   0.0057
         8.5517,   3.8809,   0.1028,   1.0393,   0.0065
         8.5544,   3.8808,   0.1010,   1.0383,   0.0003
         8.5570,   3.8805,   0.1022,   1.0375,   0.0003
         8.5596,   3.8812,   0.1048,   1.0448,   0.0033
         8.5622,   3.8831,   0.1031,   1.0439,   0.0028
         8.5649,   3.8809,   0.1024,   1.0438,   0.0049
         8.5675,   3.8842,   0.0988,   1.0425,  -0.0022
         8.5701,   3.8807,   0.1018,   1.0403,  -0.0037
         8.5727,   3.8821,   0.1039,   1.0454,   0.0054
         8.5754,   3.8813,   0.1011,   1.0385,   0.0020
         8.5780,   3.8814,   0.1032,   1.0411,   0.0072
         8.5806,   3.8806,   0.1047,   1.0439,   0.0053
         8.5832,   3.8840,   0.1039,   1.0484,   0.0057
         8.5859,   3.8867,   0.1018,   1.0501,   0.0024
         8.5885,   3.8829,   0.1034,   1.0424,   0.0120
         8.5911,   3.8823,   0.1022,   1.0399,   0.0047
         8.5938,   3.8825,   0.1035,   1.0393,   0.0026
         8.5964,   3.8833,   0.1019,   1.0479,   0.0064
         8.5990,   3.8808,   0.1030,   1.0390,   0.0049
         8.6016,   3.8810,   0.0979,   1.0416,  -0.0018
         8.6043,   3.8816,   0.1016,   1.0433,   0.0017
         8.6069,   3.8821,   0.1030,   1.0410,   0.0088
         8.6095,   3.8814,   0.1002,   1.0375,   0.0082
         8.6121,   3.8866,   0.1011,   1.0530,   0.0020
         8.6148,   3.8831,   0.1057,   1.0463,   0.0122
         8.6174,   3.8846,   0.1056,   1.0421,   0.0107
         8.6200,   3.8842,   0.0996,   1.0465,   0.0077
         8.6226,   3.8841,   0.0998,   1.0420,   0.0015
         8.6252,   3.8836,   0.1034,   1.0377,   0.0057
         8.6279,   3.8814,   0.1005,   1.0386,   0.0050
         8.6305,   3.8813,   0.1013,   1.0298,  -0.0005
         8.6331,   3.8832,   0.1061,   1.0459,   0.0070
         8.6357,   3.8824,   0.1034,   1.0450,   0.0169
         8.6384,   3.8832,   0.1045,   1.0435,   0.0087
         8.6410,   3.8819,   0.1004,   1.0390,  -0.0020
         8.6436,   3.8810,   0.1035,   1.0418,   0.0045
         8.6463,   3.8831,   0.1046,   1.0400,   0.0045
         8.6489,   3.8849,   0.1073,   1.0468,   0.0081
         8.6515,   3.8808,   0.1045,   1.0374,   0.0048
         8.6541,   3.8814,   0.1085,   1.0371,   0.0112
         8.6568,   3.8800,   0.1042,   1.0415,   0.0048
         8.6594,   3.8794,   0.1010,   1.0443,   0.0016
         8.6620,   3.8852,   0.1019,   1.0449,  -0.0040
         8.6646,   3.8841,   0.1013,   1.0374,   0.0094
         8.6672,   3.8793,   0.1043,   1.0470,   0.0084
         8.6699,   3.8822,   0.1014,   1.0395,   0.0075
         8.6725,   3.8818,   0.1069,   1.0368,   0.0069
         8.6751,   3.8829,   0.1045,   1.0478,   0.0048
         8.6777,   3.8842,   0.1040,   1.0399,   0.0084
         8.6804,   3.8827,   0.1051,   1.0421,   0.0057
         8.6830,   3.8812,   0.1035,   1.0410,   0.0101
         8.6856,   3.8835,   0.1041,   1.0384,   0.0010
         8.6883,   3.8848,   0.1027,   1.0523,   0.0069
         8.6909,   3.8801,   0.1040,   1.0403,   0.0148
         8.6935,   3.8826,   0.1036,   1.0367,   0.0044
         8.6961,   3.8806,   0.1014,   1.0409,   0.0018
         8.6988,   3.8833,   0.1042,   1.0454,   0.0079
         8.7014,   3.8862,   0.1038,   1.0440,   0.0054
         8.7040,   3.8789,   0.1033,   1.0378,   0.0094
         8.7066,   3.8842,   0.1006,   1.0449,   0.0035
         8.7093,   3.8820,   0.1068,   1.0455,   0.0142
         8.7119,   3.8754,   0.1014,   1.0346,   0.0106
         8.7145,   3.8874,   0.0994,   1.0505,   0.0026
         8.7171,   3.8869,   0.0958,   1.0423,   0.0084
         8.7197,   3.8849,   0.0998,   1.0489,   0.0018
         8.7224,   3.8863,   0.0993,   1.0466,   0.0067
         8.7250,   3.8869,   0.1052,   1.0391,   0.0112
         8.7276,   3.8854,   0.1024,   1.0435,   0.0056
         8.7302,   3.8853,   0.1051,   1.0409,   0.0036
         8.7329,   3.8840,   0.1042,   1.0407,   0.0043
         8.7355,   3.8868,   0.1048,   1.0440,   0.0067
         8.7381,   3.8837,   0.1028,   1.0383,   0.0109
         8.7408,   3.8853,   0.1013,   1.0441,   0.0058
         8.7434,   3.8873,   0.1014,   1.0379,   0.0114
         8.7460,   3.8803,   0.1035,   1.0491,  -0.0009
         8.7486,   3.8871,   0.1031,   1.0440,   0.0087
         8.7513,   3.8861,   0.1053,   1.0378,   0.0049
         8.7539,   3.8772,   0.1066,   1.0491,   0.0093
         8.7565,   3.8837,   0.1038,   1.0409,   0.0052
         8.7591,   3.8843,   0.1041,   1.0382,   0.0117
         8.7617,   3.8831,   0.1056,   1.0396,   0.0009
         8.7644,   3.8792,   0.1052,   1.0411,   0.0095
         8.7670,   3.8820,   0.1096,   1.0428,   0.0075
         8.7696,   3.8811,   0.1066,   1.0396,   0.0113
         8.7722,   3.8837,   0.1071,   1.0436,   0.0091
         8.7749,   3.8789,   0.0958,   1.0370,   0.0119
         8.7775,   3.8792,   0.1052,   1.0377,   0.0071
         8.7801,   3.8794,   0.1032,   1.0387,   0.0170
         8.7828,   3.8854,   0.1052,   1.0485,  -0.0014
         8.7854,   3.8876,   0.1017,   1.0383,   0.0080
         8.7880,   3.8804,   0.1064,   1.0372,   0.0105
         8.7906,   3.8826,   0.1042,   1.0477,   0.0096
         8.7933,   3.8831,   0.0952,   1.0454,   0.0003
         8.7959,   3.8829,   0.0998,   1.0397,   0.0057
         8.7985,   3.8854,   0.1030,   1.0431,   0.0029
         8.8011,   3.8814,   0.1005,   1.0409,   0.0084
         8.8038,   3.8851,   0.1060,   1.0455,   0.0056
         8.8064,   3.8802,   0.0972,   1.0459,   0.0094
         8.8090,   3.8808,   0.1054,   1.0412,   0.0046
         8.8116,   3.8778,   0.1001,   1.0446,   0.0031
         8.8142,   3.8852,   0.1035,   1.0396,   0.0092
         8.8169,   3.8907,   0.1029,   1.0444,   0.0095
         8.8195,   3.8822,   0.1042,   1.0456,  -0.0024
         8.8221,   3.8878,   0.1037,   1.0414,   0.0069
         8.8247,   3.8786,   0.1026,   1.0497,   0.0004
         8.8274,   3.8851,   0.1031,   1.0410,   0.0102
         8.8300,   3.8780,   0.1051,   1.0439,   0.0021
         8.8326,   3.8829,   0.1046,   1.0444,   0.0035
         8.8353,   3.8880,   0.1049,   1.0445,   0.0065
         8.8379,   3.8872,   0.0973,   1.0394,   0.0083
         8.8405,   3.8860,   0.0983,   1.0448,   0.0054
         8.8431,   3.8829,   0.1030,   1.0529,   0.0089
         8.8458,   3.8792,   0.0998,   1.0410,   0.0013
         8.8484,   3.8819,   0.1049,   1.0431,   0.0095
         8.8510,   3.8851,   0.1152,   1.0516,   0.0037
         8.8536,   3.8848,   0.1059,   1.0468,   0.0198
         8.8562,   3.8969,   0.0977,   1.0435,  -0.0003
         8.8589,   3.8707,   0.1016,   1.0371,   0.0140
         8.8615,   3.8839,   0.1093,   1.0445,   0.0106
         8.8641,   3.8853,   0.1051,   1.0402,   0.0118
         8.8667,   3.8903,   0.1094,   1.0444,   0.0056
         8.8694,   3.8844,   0.1021,   1.0381,   0.0026
         8.8720,   3.8853,   0.1038,   1.0392,   0.0042
         8.8746,   3.8797,   0.1051,   1.0392,  -0.0015
         8.8773,   3.8843,   0.1062,   1.0400,   0.0030
         8.8799,   3.8852,   0.1055,   1.0449,   0.0056
         8.8825,   3.8833,   0.1067,   1.0436,   0.0059
         8.8851,   3.8856,   0.1086,   1.0395,   0.0067
         8.8878,   3.8822,   0.1043,   1.0394,   0.0090
         8.8904,   3.8839,   0.1015,   1.0385,   0.0101
         8.8930,   3.8860,   0.1042,   1.0388,   0.0057
         8.8956,   3.8922,   0.1069,   1.0334,   0.0112
         8.8983,   3.8826,   0.1024,   1.0416,   0.0044
         8.9009,   3.8862,   0.0994,   1.0435,   0.0082
         8.9035,   3.8825,   0.1049,   1.0398,   0.0034
         8.9061,   3.8820,   0.1002,   1.0398,   0.0065
         8.9087,   3.8839,   0.1028,   1.0432,   0.0053
         8.9114,   3.8816,   0.1038,   1.0376,   0.0034
         8.9140,   3.8849,   0.1009,   1.0439,   0.0035
         8.9166,   3.8810,   0.0998,   1.0417,   0.0069
         8.9192,   3.8873,   0.1000,   1.0356,   0.0054
         8.9219,   3.8811,   0.1030,   1.0468,   0.0009
         8.9245,   3.8849,   0.1061,   1.0447,  -0.0064
         8.9271,   3.8789,   0.1033,   1.0490,   0.0066
         8.9298,   3.8822,   0.0978,   1.0402,   0.0098
         8.9324,   3.8831,   0.0935,   1.0339,   0.0075
         8.9350,   3.8868,   0.0960,   1.0368,   0.0047
         8.9376,   3.8899,   0.0977,   1.0416,   0.0010
         8.9403,   3.8851,   0.1025,   1.0449,   0.0120
         8.9429,   3.8859,   0.1081,   1.0455,   0.0078
         8.9455,   3.8837,   0.1059,   1.0442,   0.0077
         8.9481,   3.8869,   0.1117,   1.0532,   0.0116
         8.9507,   3.8822,   0.0995,   1.0456,   0.0075
         8.9534,   3.8854,   0.1037,   1.0408,   0.0020
         8.9560,   3.8909,   0.1094,   1.0454,   0.0105
         8.9586,   3.8876,   0.1023,   1.0481,   0.0115
         8.9612,   3.8830,   0.1009,   1.0414,   0.0046
         8.9639,   3.8865,   0.1044,   1.0466,   0.0083
         8.9665,   3.8859,   0.1050,   1.0407,   0.0070
         8.9691,   3.8868,   0.0973,   1.0472,   0.0092
         8.9718,   3.8850,   0.0948,   1.0498,   0.0042
         8.9744,   3.8813,   0.0982,   1.0418,   0.0040
         8.9770,   3.8863,   0.1028,   1.0464,   0.0088
         8.9796,   3.8834,   0.1022,   1.0453,   0.0061
         8.9823,   3.8894,   0.0970,   1.0450,   0.0179
         8.9849,   3.8880,   0.1040,   1.0417,   0.0104
         8.9875,   3.8885,   0.1084,   1.0323,   0.0023
         8.9901,   3.8884,   0.1066,   1.0401,   0.0075
         8.9927,   3.8857,   0.1025,   1.0452,   0.0099
         8.9954,   3.8895,   0.1010,   1.0391,   0.0164
         8.9980,   3.8880,   0.1065,   1.0378,   0.0082
         9.0006,   3.8822,   0.0986,   1.0463,   0.0107
         9.0032,   3.8819,   0.1029,   1.0485,   0.0045
         9.0059,   3.8836,   0.1026,   1.0448,   0.0092
         9.0085,   3.8878,   0.1023,   1.0486,   0.0081
         9.0111,   3.8861,   0.1076,   1.0441,   0.0087
         9.0137,   3.8867,   0.1079,   1.0382,   0.0074
         9.0164,   3.8882,   0.1037,   1.0364,   0.0060
         9.0190,   3.8796,   0.1069,   1.0459,  -0.0031
         9.0216,   3.8843,   0.1065,   1.0392,   0.0101
         9.0243,   3.8881,   0.1093,   1.0419,   0.0094
         9.0269,   3.8887,   0.1091,   1.0462,   0.0125
         9.0295,   3.8815,   0.1044,   1.0442,   0.0074
         9.0321,   3.8888,   0.1032,   1.0397,   0.0089
         9.0348,   3.8854,   0.1051,   1.0448,   0.0110
         9.0374,   3.8860,   0.1099,   1.0347,   0.0095
         9.0400,   3.8829,   0.1073,   1.0434,   0.0089
         9.0426,   3.8812,   0.1004,   1.0408,   0.0059
         9.0452,   3.8861,   0.1049,   1.0410,   0.0125
         9.0479,   3.8814,   0.1019,   1.0386,   0.0027
         9.0505,   3.8792,   0.1068,   1.0347,   0.0062
         9.0531,   3.8825,   0.1020,   1.0426,   0.0065
         9.0557,   3.8850,   0.1069,   1.0404,   0.0105
         9.0584,   3.8781,   0.1044,   1.0383,   0.0000
         9.0610,   3.8820,   0.1011,   1.0401,   0.0084
         9.0636,   3.8804,   0.0966,   1.0438,   0.0074
         9.0663,   3.8814,   0.1013,   1.0421,   0.0024
         9.0689,   3.8845,   0.1001,   1.0396,   0.0083
         9.0715,   3.8857,   0.0997,   1.0405,   0.0032
         9.0741,   3.8840,   0.0997,   1.0395,   0.0109
         9.0768,   3.8831,   0.1024,   1.0390,   0.0130
         9.0794,   3.8859,   0.0980,   1.0344,   0.0058
         9.0820,   3.8839,   0.0985,   1.0434,   0.0097
         9.0846,   3.8843,   0.0959,   1.0333,   0.0086
         9.0872,   3.8836,   0.0959,   1.0466,   0.0050
         9.0899,   3.8846,   0.1011,   1.0413,   0.0177
         9.0925,   3.8849,   0.0961,   1.0367,   0.0091
         9.0951,   3.8835,   0.1000,   1.0413,   0.0194
         9.0977,   3.8783,   0.0958,   1.0301,   0.0068
         9.1004,   3.8844,   0.1002,   1.0445,   0.0050
         9.1030,   3.8861,   0.1012,   1.0398,   0.0176
         9.1056,   3.8815,   0.0959,   1.0367,   0.0115
         9.1083,   3.8828,   0.0991,   1.0373,   0.0093
         9.1109,   3.8872,   0.0933,   1.0464,   0.0110
         9.1135,   3.8858,   0.0946,   1.0394,   0.0090
         9.1161,   3.8848,   0.1033,   1.0407,   0.0209
         9.1188,   3.8844,   0.0974,   1.0360,   0.0182
         9.1214,   3.8842,   0.0934,   1.0431,   0.0050
         9.1240,   3.8826,   0.0954,   1.0415,   0.0109
         9.1266,   3.8871,   0.1025,   1.0372,   0.0142
         9.1293,   3.8865,   0.0958,   1.0372,   0.0119
         9.1319,   3.8863,   0.0979,   1.0340,   0.0064
         9.1345,   3.8885,   0.0977,   1.0444,   0.0046
         9.1371,   3.8895,   0.0965,   1.0417,   0.0071
         9.1397,   3.8835,   0.1009,   1.0447,   0.0045
         9.1424,   3.8860,   0.1029,   1.0409,   0.0107
         9.1450,   3.8849,   0.1007,   1.0420,   0.0126
         9.1476,   3.8888,   0.0947,   1.0404,   0.0109
         9.1502,   3.8861,   0.0969,   1.0441,   0.0107
         9.1529,   3.8860,   0.1012,   1.0382,   0.0052
         9.1555,   3.8869,   0.1005,   1.0410,   0.0179
         9.1581,   3.8887,   0.1004,   1.0425,   0.0125
         9.1608,   3.8864,   0.1014,   1.0426,   0.0060
         9.1634,   3.8871,   0.1001,   1.0406,   0.0074
         9.1660,   3.8859,   0.1033,   1.0429,   0.0128
         9.1686,   3.8873,   0.1049,   1.0472,   0.0089
         9.1713,   3.8871,   0.1048,   1.0377,   0.0206
         9.1739,   3.8878,   0.1054,   1.0408,   0.0125
         9.1765,   3.8799,   0.1027,   1.0299,   0.0156
         9.1791,   3.8848,   0.0987,   1.0319,   0.0062
         9.1817,   3.8884,   0.1027,   1.0389,   0.0110
         9.1844,   3.8884,   0.1000,   1.0447,   0.0084
         9.1870,   3.8862,   0.1004,   1.0336,   0.0075
         9.1896,   3.8865,   0.1028,   1.0387,   0.0114
         9.1922,   3.8842,   0.1064,   1.0331,   0.0130
         9.1949,   3.8818,   0.0997,   1.0322,   0.0024
         9.1975,   3.8845,   0.0980,   1.0390,   0.0038
         9.2001,   3.8874,   0.0979,   1.0435,   0.0034
         9.2028,   3.8801,   0.0985,   1.0301,  -0.0004
         9.2054,   3.8867,   0.0980,   1.0415,   0.0077
         9.2080,   3.8818,   0.0987,   1.0386,   0.0029
         9.2106,   3.8849,   0.1028,   1.0439,   0.0148
         9.2133,   3.8852,   0.1033,   1.0442,   0.0104
         9.2159,   3.8833,   0.1000,   1.0353,   0.0053
         9.2185,   3.8797,   0.0984,   1.0394,   0.0061
         9.2211,   3.8859,   0.0980,   1.0421,   0.0065
         9.2238,   3.8810,   0.1028,   1.0371,   0.0091
         9.2264,   3.8848,   0.0995,   1.0406,   0.0059
         9.2290,   3.8844,   0.0959,   1.0393,   0.0043
         9.2316,   3.8855,   0.1021,   1.0404,   0.0156
         9.2342,   3.8819,   0.0979,   1.0352,   0.0101
         9.2369,   3.8831,   0.0959,   1.0374,   0.0095
         9.2395,   3.8842,   0.0968,   1.0415,   0.0094
         9.2421,   3.8850,   0.1003,   1.0393,   0.0118
         9.2447,   3.8885,   0.0953,   1.0417,   0.0033
         9.2474,   3.8876,   0.1010,   1.0402,   0.0122
         9.2500,   3.8848,   0.0971,   1.0372,   0.0074
         9.2526,   3.8891,   0.1010,   1.0445,   0.0099
         9.2553,   3.8835,   0.0976,   1.0323,   0.0079
         9.2579,   3.8864,   0.0980,   1.0381,   0.0082
         9.2605,   3.8868,   0.0939,   1.0410,   0.0014
         9.2631,   3.8840,   0.1038,   1.0365,   0.0193
         9.2658,   3.8890,   0.1000,   1.0424,   0.0133
         9.2684,   3.8895,   0.1053,   1.0489,   0.0239
         9.2710,   3.8878,   0.0992,   1.0333,   0.0119
         9.2736,   3.8896,   0.1019,   1.0475,   0.0185
         9.2762,   3.8890,   0.1015,   1.0416,   0.0128
         9.2789,   3.8880,   0.0988,   1.0425,   0.0106
         9.2815,   3.8911,   0.0992,   1.0449,   0.0113
         9.2841,   3.8930,   0.1021,   1.0483,   0.0108
         9.2867,   3.8902,   0.0988,   1.0410,   0.0019
         9.2894,   3.8898,   0.1025,   1.0422,   0.0132
         9.2920,   3.8894,   0.1019,   1.0404,   0.0122
         9.2946,   3.8848,   0.1021,   1.0326,   0.0147
         9.2973,   3.8864,   0.0972,   1.0387,   0.0063
         9.2999,   3.8891,   0.1048,   1.0431,   0.0188
         9.3025,   3.8891,   0.1018,   1.0446,   0.0181
         9.3051,   3.8873,   0.1006,   1.0377,   0.0090
         9.3078,   3.8886,   0.1055,   1.0452,   0.0138
         9.3104,   3.8878,   0.0979,   1.0378,   0.0063
         9.3130,   3.8864,   0.1031,   1.0429,   0.0082
         9.3156,   3.8897,   0.0990,   1.0432,   0.0113
         9.3183,   3.8909,   0.1047,   1.0442,   0.0126
         9.3209,   3.8874,   0.1004,   1.0379,   0.0104
         9.3235,   3.8882,   0.1016,   1.0366,   0.0109
         9.3261,   3.8882,   0.1023,   1.0392,   0.0098
         9.3287,   3.8869,   0.1031,   1.0383,   0.0093
         9.3314,   3.8866,   0.1004,   1.0408,   0.0026
         9.3340,   3.8864,   0.1028,   1.0400,   0.0095
         9.3366,   3.8903,   0.1000,   1.0466,   0.0059
         9.3392,   3.8851,   0.0996,   1.0401,   0.0065
         9.3419,   3.8872,   0.1013,   1.0364,   0.0103
         9.3445,   3.8875,   0.1071,   1.0395,   0.0160
         9.3471,   3.8880,   0.1002,   1.0409,   0.0113
         9.3498,   3.8911,   0.1036,   1.0425,   0.0114
         9.3524,   3.8894,   0.0996,   1.0447,   0.0079
         9.3550,   3.8895,   0.0959,   1.0421,  -0.0006
         9.3576,   3.8834,   0.0970,   1.0409,   0.0117
         9.3603,   3.8856,   0.1055,   1.0332,   0.0097
         9.3629,   3.8862,   0.0993,   1.0391,   0.0067
         9.3655,   3.8915,   0.1005,   1.0366,   0.0111
         9.3681,   3.8869,   0.0977,   1.0438,   0.0073
         9.3707,   3.8867,   0.1013,   1.0430,   0.0040
         9.3734,   3.8825,   0.0980,   1.0449,   0.0058
         9.3760,   3.8910,   0.1021,   1.0332,   0.0048
         9.3786,   3.8870,   0.0979,   1.0503,   0.0053
         9.3812,   3.8859,   0.1000,   1.0423,   0.0105
         9.3839,   3.8816,   0.1022,   1.0403,   0.0112
         9.3865,   3.8866,   0.1000,   1.0429,   0.0127
         9.3891,   3.8841,   0.1017,   1.0402,   0.0078
         9.3918,   3.8891,   0.0998,   1.0450,   0.0076
         9.3944,   3.8858,   0.0969,   1.0356,   0.0076
         9.3970,   3.8866,   0.0996,   1.0443,   0.0132
         9.3996,   3.8883,   0.1034,   1.0323,   0.0081
         9.4023,   3.8840,   0.0998,   1.0392,   0.0050
         9.4049,   3.8865,   0.0998,   1.0368,   0.0110
         9.4075,   3.8823,   0.1020,   1.0401,   0.0081
         9.4101,   3.8896,   0.0979,   1.0496,   0.0065
         9.4128,   3.8816,   0.0997,   1.0410,   0.0099
         9.4154,   3.8876,   0.0981,   1.0381,   0.0085
         9.4180,   3.8881,   0.1000,   1.0411,   0.0114
         9.4206,   3.8869,   0.1028,   1.0403,   0.0111
         9.4232,   3.8928,   0.1008,   1.0445,   0.0086
         9.4259,   3.8839,   0.0977,   1.0359,   0.0088
         9.4285,   3.8847,   0.1011,   1.0416,   0.0064
         9.4311,   3.8888,   0.0988,   1.0421,   0.0072
         9.4337,   3.8883,   0.0961,   1.0418,   0.0044
         9.4364,   3.8857,   0.1053,   1.0437,   0.0113
         9.4390,   3.8889,   0.1014,   1.0386,   0.0144
         9.4416,   3.8896,   0.0927,   1.0426,   0.0058
         9.4443,   3.8883,   0.0967,   1.0353,   0.0078
         9.4469,   3.8877,   0.0988,   1.0367,   0.0070
         9.4495,   3.8926,   0.1037,   1.0498,   0.0100
         9.4521,   3.8924,   0.0945,   1.0423,   0.0132
         9.4548,   3.8928,   0.0916,   1.0483,   0.0121
         9.4574,   3.8869,   0.1063,   1.0445,   0.0060
         9.4600,   3.8880,   0.1010,   1.0475,   0.0146
         9.4626,   3.8935,   0.1048,   1.0435,   0.0032
         9.4652,   3.8922,   0.1015,   1.0435,   0.0122
         9.4679,   3.8850,   0.1013,   1.0433,   0.0127
         9.4705,   3.8938,   0.1028,   1.0366,   0.0171
         9.4731,   3.8889,   0.1007,   1.0442,  -0.0038
         9.4757,   3.8895,   0.0993,   1.0393,   0.0079
         9.4784,   3.8845,   0.1023,   1.0400,   0.0079
         9.4810,   3.8982,   0.1040,   1.0406,   0.0065
         9.4836,   3.8876,   0.1015,   1.0404,   0.0072
         9.4863,   3.8954,   0.1015,   1.0440,   0.0096
         9.4889,   3.8891,   0.1042,   1.0369,   0.0120
         9.4915,   3.8958,   0.1052,   1.0433,   0.0095
         9.4941,   3.8892,   0.1032,   1.0426,   0.0177
         9.4968,   3.8945,   0.1065,   1.0343,   0.0088
         9.4994,   3.8956,   0.1005,   1.0337,   0.0051
         9.5020,   3.8869,   0.0916,   1.0368,   0.0116
         9.5046,   3.8846,   0.1056,   1.0328,   0.0085
         9.5073,   3.8913,   0.0975,   1.0397,   0.0049
         9.5099,   3.8896,   0.1000,   1.0452,   0.0100
         9.5125,   3.8876,   0.1032,   1.0382,   0.0152
         9.5151,   3.8911,   0.0947,   1.0452,   0.0095
         9.5177,   3.8940,   0.1029,   1.0380,   0.0185
         9.5204,   3.8865,   0.1015,   1.0394,   0.0125
         9.5230,   3.8863,   0.1098,   1.0296,   0.0124
         9.5256,   3.8899,   0.1065,   1.0382,   0.0063
         9.5282,   3.8931,   0.1015,   1.0343,   0.0092
         9.5309,   3.8875,   0.0996,   1.0459,   0.0095
         9.5335,   3.8911,   0.1009,   1.0368,   0.0164
         9.5361,   3.8898,   0.0986,   1.0441,   0.0168
         9.5388,   3.8862,   0.1082,   1.0337,   0.0031
         9.5414,   3.8892,   0.1006,   1.0371,   0.0178
         9.5440,   3.8845,   0.0989,   1.0465,   0.0133
         9.5466,   3.8880,   0.1014,   1.0398,   0.0130
         9.5493,   3.8889,   0.1027,   1.0367,   0.0078
         9.5519,   3.8871,   0.1050,   1.0413,   0.0109
         9.5545,   3.8871,   0.0983,   1.0306,   0.0122
         9.5571,   3.8810,   0.1028,   1.0490,   0.0088
         9.5597,   3.8879,   0.1100,   1.0405,   0.0022
         9.5624,   3.8860,   0.1034,   1.0357,   0.0032
         9.5650,   3.8847,   0.1006,   1.0413,   0.0068
         9.5676,   3.8841,   0.0957,   1.0441,   0.0091
         9.5702,   3.8841,   0.0934,   1.0422,   0.0088
         9.5729,   3.8874,   0.0929,   1.0368,   0.0090
         9.5755,   3.8900,   0.1048,   1.0470,   0.0060
         9.5781,   3.8852,   0.1072,   1.0351,   0.0086
         9.5808,   3.8930,   0.0963,   1.0392,   0.0004
         9.5834,   3.8888,   0.0904,   1.0378,   0.0009
         9.5860,   3.8837,   0.0939,   1.0317,   0.0010
         9.5886,   3.8881,   0.0913,   1.0408,  -0.0003
         9.5913,   3.8870,   0.0992,   1.0436,   0.0100
         9.5939,   3.8843,   0.1025,   1.0400,   0.0094
         9.5965,   3.8844,   0.1010,   1.0350,   0.0054
         9.5991,   3.8925,   0.1064,   1.0320,   0.0084
         9.6017,   3.8847,   0.0996,   1.0341,   0.0065
         9.6044,   3.8840,   0.1036,   1.0386,   0.0077
         9.6070,   3.8875,   0.1070,   1.0366,   0.0083
         9.6096,   3.8907,   0.1044,   1.0408,   0.0132
         9.6122,   3.8857,   0.1044,   1.0346,   0.0069
         9.6149,   3.8924,   0.0998,   1.0418,   0.0097
         9.6175,   3.8965,   0.1028,   1.0388,   0.0119
         9.6201,   3.8865,   0.1040,   1.0408,   0.0051
         9.6227,   3.8926,   0.1025,   1.0394,   0.0088
         9.6254,   3.8892,   0.1020,   1.0426,   0.0084
         9.6280,   3.8928,   0.0989,   1.0376,   0.0101
         9.6306,   3.8871,   0.0993,   1.0444,   0.0087
         9.6333,   3.8893,   0.1014,   1.0397,   0.0092
         9.6359,   3.8913,   0.0980,   1.0380,   0.0156
         9.6385,   3.8897,   0.0985,   1.0415,   0.0119
         9.6411,   3.8916,   0.1014,   1.0390,   0.0099
         9.6438,   3.8878,   0.1010,   1.0398,   0.0105
         9.6464,   3.8900,   0.0970,   1.0396,   0.0137
         9.6490,   3.8817,   0.0945,   1.0445,   0.0232
         9.6516,   3.8951,   0.1026,   1.0447,   0.0214
         9.6542,   3.8897,   0.1075,   1.0401,   0.0106
         9.6569,   3.8938,   0.1027,   1.0449,   0.0106
         9.6595,   3.8864,   0.1026,   1.0465,   0.0101
         9.6621,   3.8840,   0.0947,   1.0392,   0.0016
         9.6647,   3.8925,   0.1000,   1.0386,   0.0057
         9.6674,   3.8913,   0.0985,   1.0379,   0.0044
         9.6700,   3.8800,   0.0936,   1.0310,   0.0116
         9.6726,   3.8945,   0.1046,   1.0428,   0.0160
         9.6753,   3.8862,   0.1045,   1.0364,   0.0125
         9.6779,   3.8944,   0.1136,   1.0388,   0.0136
         9.6805,   3.8827,   0.1061,   1.0427,   0.0078
         9.6831,   3.8808,   0.1049,   1.0419,   0.0091
         9.6858,   3.8790,   0.1037,   1.0360,   0.0025
         9.6884,   3.8920,   0.1073,   1.0400,   0.0208
         9.6910,   3.8824,   0.0996,   1.0375,   0.0117
         9.6936,   3.8802,   0.1044,   1.0367,   0.0051
         9.6962,   3.8815,   0.1054,   1.0416,   0.0113
         9.6989,   3.8754,   0.1031,   1.0432,  -0.0003
         9.7015,   3.8878,   0.1059,   1.0336,   0.0052
         9.7041,   3.8826,   0.1031,   1.0412,   0.0075
         9.7067,   3.8828,   0.1067,   1.0386,   0.0056
         9.7094,   3.8799,   0.1020,   1.0397,   0.0068
         9.7120,   3.8821,   0.1032,   1.0439,   0.0053
         9.7146,   3.8842,   0.1024,   1.0406,   0.0011
         9.7172,   3.8812,   0.1051,   1.0410,   0.0075
         9.7199,   3.8846,   0.1001,   1.0368,   0.0122
         9.7225,   3.8868,   0.1021,   1.0409,   0.0043
         9.7251,   3.8901,   0.0989,   1.0403,   0.0072
         9.7278,   3.8799,   0.1037,   1.0385,   0.0056
         9.7304,   3.8877,   0.1035,   1.0480,   0.0066
         9.7330,   3.8856,   0.0990,   1.0387,   0.0003
         9.7356,   3.8841,   0.0996,   1.0482,   0.0039
         9.7383,   3.8848,   0.1026,   1.0449,   0.0067
         9.7409,   3.8821,   0.1011,   1.0473,   0.0115
         9.7435,   3.8785,   0.1016,   1.0420,   0.0075
         9.7461,   3.8849,   0.0998,   1.0442,   0.0112
         9.7487,   3.8878,   0.1018,   1.0412,   0.0076
         9.7514,   3.8809,   0.1010,   1.0380,   0.0074
         9.7540,   3.8907,   0.1018,   1.0451,   0.0142
         9.7566,   3.8884,   0.1038,   1.0428,   0.0060
         9.7592,   3.8899,   0.0960,   1.0432,   0.0036
         9.7619,   3.8937,   0.1032,   1.0445,   0.0129
         9.7645,   3.8894,   0.1096,   1.0414,   0.0127
         9.7671,   3.8881,   0.0943,   1.0447,   0.0042
         9.7698,   3.8972,   0.1018,   1.0420,   0.0117
         9.7724,   3.8900,   0.1029,   1.0426,   0.0074
         9.7750,   3.8910,   0.0971,   1.0473,   0.0086
         9.7776,   3.8905,   0.0965,   1.0463,   0.0071
         9.7803,   3.8950,   0.0992,   1.0427,   0.0154
         9.7829,   3.8913,   0.1008,   1.0354,   0.0123
         9.7855,   3.8905,   0.1001,   1.0450,   0.0104
         9.7881,   3.8889,   0.1030,   1.0412,   0.0110
         9.7907,   3.8902,   0.0997,   1.0472,   0.0048
         9.7934,   3.8941,   0.1023,   1.0381,   0.0078
         9.7960,   3.8893,   0.1040,   1.0465,   0.0107
         9.7986,   3.8976,   0.1016,   1.0370,   0.0063
         9.8012,   3.8909,   0.0999,   1.0463,   0.0126
         9.8039,   3.8927,   0.0998,   1.0379,   0.0105
         9.8065,   3.8923,   0.0993,   1.0407,   0.0133
         9.8091,   3.8888,   0.1037,   1.0365,   0.0153
         9.8118,   3.8892,   0.1020,   1.0403,   0.0116
         9.8144,   3.8911,   0.0996,   1.0355,   0.0099
         9.8170,   3.8969,   0.1044,   1.0406,   0.0097
         9.8196,   3.8878,   0.1071,   1.0348,   0.0169
         9.8223,   3.8830,   0.1031,   1.0405,   0.0163
         9.8249,   3.8806,   0.0966,   1.0332,   0.0019
         9.8275,   3.8849,   0.1047,   1.0313,   0.0085
         9.8301,   3.8933,   0.1057,   1.0388,   0.0060
         9.8328,   3.8840,   0.1137,   1.0370,   0.0136
         9.8354,   3.8889,   0.1062,   1.0394,   0.0083
         9.8380,   3.8899,   0.1084,   1.0401,   0.0145
         9.8406,   3.8895,   0.0951,   1.0434,   0.0076
         9.8432,   3.8944,   0.1072,   1.0445,   0.0113
         9.8459,   3.8878,   0.1075,   1.0417,   0.0085
         9.8485,   3.8879,   0.1057,   1.0467,   0.0085
         9.8511,   3.8821,   0.1048,   1.0409,   0.0027
         9.8537,   3.8860,   0.1093,   1.0336,   0.0131
         9.8564,   3.8867,   0.1024,   1.0397,   0.0044
         9.8590,   3.8904,   0.1136,   1.0297,   0.0121
         9.8616,   3.8826,   0.1010,   1.0405,   0.0084
         9.8643,   3.8857,   0.1033,   1.0393,  -0.0009
         9.8669,   3.8883,   0.1019,   1.0446,   0.0087
         9.8695,   3.8825,   0.0987,   1.0420,   0.0076
         9.8721,   3.8809,   0.1069,   1.0409,   0.0090
         9.8748,   3.8845,   0.1028,   1.0398,   0.0022
         9.8774,   3.8861,   0.1035,   1.0439,   0.0040
         9.8800,   3.8847,   0.0994,   1.0412,   0.0092
         9.8826,   3.8888,   0.1014,   1.0426,   0.0073
         9.8852,   3.8889,   0.1028,   1.0429,   0.0052
         9.8879,   3.8871,   0.1032,   1.0383,   0.0075
         9.8905,   3.8874,   0.1012,   1.0442,   0.0098
         9.8931,   3.8904,   0.1018,   1.0441,   0.0117
         9.8957,   3.8898,   0.1011,   1.0429,   0.0115
         9.8984,   3.8913,   0.1003,   1.0399,   0.0089
         9.9010,   3.8922,   0.1011,   1.0441,   0.0109
         9.9036,   3.8881,   0.1011,   1.0405,   0.0147
         9.9063,   3.8961,   0.0989,   1.0442,   0.0090
         9.9089,   3.8882,   0.0996,   1.0394,   0.0126
         9.9115,   3.8914,   0.1013,   1.0416,   0.0091
         9.9141,   3.8907,   0.1010,   1.0415,   0.0101
         9.9168,   3.8889,   0.0975,   1.0374,   0.0121
         9.9194,   3.8863,   0.1002,   1.0363,   0.0137
         9.9220,   3.8964,   0.0968,   1.0439,   0.0037
         9.9246,   3.8941,   0.1054,   1.0470,   0.0161
         9.9273,   3.8944,   0.1011,   1.0430,   0.0080
         9.9299,   3.8894,   0.0988,   1.0367,   0.0070
         9.9325,   3.8958,   0.0995,   1.0484,   0.0057
         9.9351,   3.8898,   0.0985,   1.0410,   0.0072
         9.9377,   3.8900,   0.1035,   1.0377,   0.0153
         9.9404,   3.8892,   0.1036,   1.0376,   0.0160
         9.9430,   3.8888,   0.1031,   1.0371,   0.0170
         9.9456,   3.8911,   0.1057,   1.0426,   0.0153
         9.9482,   3.8896,   0.1048,   1.0377,   0.0159
         9.9509,   3.8922,   0.1008,   1.0441,   0.0124
         9.9535,   3.8891,   0.0996,   1.0339,   0.0125
         9.9561,   3.8903,   0.1057,   1.0376,   0.0120
         9.9588,   3.8902,   0.1063,   1.0384,   0.0096
         9.9614,   3.8913,   0.1033,   1.0404,   0.0108
         9.9640,   3.8894,   0.1026,   1.0410,   0.0079
         9.9666,   3.8886,   0.1047,   1.0401,   0.0102
         9.9693,   3.8884,   0.1058,   1.0392,   0.0106
         9.9719,   3.8867,   0.0984,   1.0388,   0.0013
         9.9745,   3.8890,   0.1051,   1.0390,   0.0101
         9.9771,   3.8861,   0.1026,   1.0348,   0.0090
         9.9797,   3.8871,   0.1076,   1.0392,   0.0128
         9.9824,   3.8896,   0.1086,   1.0432,   0.0118
         9.9850,   3.8890,   0.1066,   1.0418,   0.0096
         9.9876,   3.8873,   0.1044,   1.0415,   0.0114
         9.9902,   3.8891,   0.1080,   1.0428,   0.0144
         9.9929,   3.8818,   0.1084,   1.0368,   0.0143
         9.9955,   3.8844,   0.1026,   1.0378,   0.0060
         9.9981,   3.8849,   0.1004,   1.0365,   0.0036
        10.0008,   3.8897,   0.1007,   1.0437,   0.0047
        10.0034,   3.8860,   0.1080,   1.0430,   0.0127
        10.0060,   3.8854,   0.1069,   1.0410,   0.0122
        10.0086,   3.8898,   0.1013,   1.0461,   0.0073
        10.0113,   3.8993,   0.1068,   1.0549,   0.0118
        10.0139,   3.8859,   0.0981,   1.0396,   0.0019
        10.0165,   3.8847,   0.1034,   1.0385,   0.0091
        10.0191,   3.8894,   0.0961,   1.0434,  -0.0004
        10.0218,   3.8877,   0.0985,   1.0410,   0.0030
        10.0244,   3.8894,   0.1028,   1.0432,   0.0107
        10.0270,   3.8824,   0.0958,   1.0371,   0.0025
        10.0296,   3.8865,   0.1055,   1.0397,   0.0107
        10.0322,   3.8854,   0.1016,   1.0361,   0.0086
        10.0349,   3.8868,   0.1049,   1.0380,   0.0116
        10.0375,   3.8878,   0.1054,   1.0400,   0.0104
        10.0401,   3.8876,   0.1008,   1.0409,   0.0078
        10.0428,   3.8900,   0.0971,   1.0415,   0.0036
        10.0454,   3.8887,   0.1035,   1.0417,   0.0116
        10.0480,   3.8895,   0.1046,   1.0435,   0.0130
        10.0506,   3.8909,   0.1025,   1.0453,   0.0065
        10.0533,   3.8838,   0.1037,   1.0355,   0.0098
        10.0559,   3.8883,   0.1032,   1.0390,   0.0103
        10.0585,   3.8882,   0.1029,   1.0387,   0.0066
        10.0611,   3.8925,   0.1051,   1.0448,   0.0129
        10.0638,   3.8930,   0.1035,   1.0475,   0.0124
        10.0664,   3.8880,   0.0999,   1.0410,   0.0069
        10.0690,   3.8922,   0.1023,   1.0467,   0.0079
        10.0716,   3.8905,   0.1009,   1.0441,   0.0109
        10.0742,   3.8926,   0.1039,   1.0439,   0.0095
        10.0769,   3.8867,   0.1043,   1.0355,   0.0109
        10.0795,   3.8929,   0.1072,   1.0487,   0.0108
        10.0821,   3.8907,   0.0997,   1.0421,   0.0022
        10.0848,   3.8880,   0.1078,   1.0391,   0.0184
        10.0874,   3.8915,   0.1047,   1.0403,   0.0118
        10.0900,   3.8865,   0.1061,   1.0391,   0.0098
        10.0926,   3.8911,   0.0995,   1.0470,   0.0045
        10.0953,   3.8923,   0.1024,   1.0448,   0.0050
        10.0979,   3.8855,   0.1027,   1.0389,   0.0093
        10.1005,   3.8909,   0.1041,   1.0432,   0.0101
        10.1031,   3.8956,   0.1050,   1.0480,   0.0146
        10.1058,   3.8893,   0.0989,   1.0444,   0.0062
        10.1084,   3.8919,   0.1064,   1.0466,   0.0119
        10.1110,   3.8865,   0.1028,   1.0404,   0.0094
        10.1136,   3.8883,   0.1059,   1.0448,   0.0100
        10.1163,   3.8899,   0.1032,   1.0431,   0.0080
        10.1189,   3.8868,   0.1040,   1.0417,   0.0053
        10.1215,   3.8873,   0.1044,   1.0434,   0.0125
        10.1241,   3.8900,   0.1031,   1.0453,   0.0104
        10.1267,   3.8902,   0.1061,   1.0398,   0.0137
        10.1294,   3.8887,   0.1016,   1.0425,   0.0102
        10.1320,   3.8892,   0.1026,   1.0366,   0.0102
        10.1346,   3.8910,   0.1046,   1.0434,   0.0104
        10.1373,   3.8889,   0.1080,   1.0409,   0.0131
        10.1399,   3.8899,   0.1053,   1.0444,   0.0115
        10.1425,   3.8877,   0.1040,   1.0440,   0.0085
        10.1451,   3.8922,   0.1053,   1.0506,   0.0144
        10.1478,   3.8889,   0.0958,   1.0388,   0.0031
        10.1504,   3.8877,   0.1042,   1.0416,   0.0073
        10.1530,   3.8863,   0.0989,   1.0333,   0.0062
        10.1556,   3.8854,   0.1053,   1.0392,   0.0126
        10.1583,   3.8935,   0.1012,   1.0423,   0.0090
        10.1609,   3.8908,   0.1044,   1.0449,   0.0094
        10.1635,   3.8904,   0.1043,   1.0417,   0.0109
        10.1661,   3.8872,   0.0972,   1.0343,   0.0038
        10.1687,   3.8827,   0.1024,   1.0332,   0.0026
        10.1714,   3.8941,   0.1013,   1.0437,   0.0085
        10.1740,   3.8946,   0.1009,   1.0460,   0.0028
        10.1766,   3.8875,   0.1039,   1.0407,   0.0140
        10.1793,   3.8976,   0.1004,   1.0484,   0.0058
        10.1819,   3.8973,   0.1019,   1.0470,   0.0083
        10.1845,   3.8917,   0.1021,   1.0395,   0.0031
        10.1871,   3.8910,   0.0995,   1.0427,   0.0109
        10.1898,   3.8886,   0.1012,   1.0392,   0.0087
        10.1924,   3.8917,   0.1023,   1.0436,   0.0051
        10.1950,   3.8920,   0.0968,   1.0410,   0.0053
        10.1976,   3.8899,   0.1017,   1.0417,   0.0086
        10.2003,   3.8919,   0.1120,   1.0414,   0.0126
        10.2029,   3.8918,   0.0978,   1.0426,   0.0000
        10.2055,   3.8912,   0.0982,   1.0393,   0.0064
        10.2081,   3.8887,   0.1019,   1.0421,   0.0057
        10.2108,   3.8897,   0.1052,   1.0380,   0.0058
        10.2134,   3.8894,   0.1030,   1.0430,   0.0062
        10.2160,   3.8904,   0.1075,   1.0417,   0.0164
        10.2186,   3.8836,   0.0993,   1.0405,   0.0104
        10.2213,   3.8979,   0.1049,   1.0464,   0.0094
        10.2239,   3.8889,   0.1118,   1.0444,   0.0122
        10.2265,   3.8844,   0.1076,   1.0380,   0.0084
        10.2291,   3.8990,   0.0983,   1.0483,   0.0060
        10.2318,   3.8948,   0.1070,   1.0400,   0.0047
        10.2344,   3.8905,   0.1052,   1.0418,   0.0139
        10.2370,   3.8908,   0.1094,   1.0449,   0.0082
        10.2396,   3.8863,   0.1051,   1.0394,   0.0013
        10.2423,   3.8876,   0.1036,   1.0457,   0.0109
        10.2449,   3.8976,   0.1081,   1.0408,   0.0108
        10.2475,   3.8912,   0.1047,   1.0424,   0.0127
        10.2501,   3.8914,   0.1013,   1.0469,   0.0055
        10.2528,   3.8908,   0.1034,   1.0445,   0.0057
        10.2554,   3.8924,   0.1038,   1.0419,   0.0136
        10.2580,   3.8946,   0.1127,   1.0440,   0.0188
        10.2606,   3.8901,   0.1043,   1.0420,   0.0073
        10.2632,   3.8917,   0.1131,   1.0389,   0.0128
        10.2659,   3.8887,   0.1026,   1.0354,   0.0012
        10.2685,   3.8851,   0.1065,   1.0414,   0.0059
        10.2711,   3.8871,   0.1087,   1.0415,   0.0053
        10.2738,   3.8925,   0.1002,   1.0444,   0.0091
        10.2764,   3.8900,   0.1034,   1.0431,   0.0099
        10.2790,   3.8882,   0.1020,   1.0403,   0.0081
        10.2816,   3.8898,   0.1059,   1.0389,   0.0133
        10.2843,   3.8931,   0.1056,   1.0463,   0.0116
        10.2869,   3.8943,   0.1034,   1.0406,   0.0090
        10.2895,   3.8915,   0.1030,   1.0419,   0.0087
        10.2921,   3.8873,   0.1007,   1.0400,   0.0174
        10.2948,   3.8871,   0.1016,   1.0431,   0.0159
        10.2974,   3.8879,   0.1019,   1.0425,   0.0118
        10.3000,   3.8873,   0.0980,   1.0450,   0.0111
        10.3026,   3.8918,   0.1083,   1.0416,   0.0084
        10.3052,   3.8922,   0.1033,   1.0455,   0.0126
        10.3079,   3.8868,   0.1029,   1.0390,   0.0127
        10.3105,   3.8881,   0.1091,   1.0412,   0.0132
        10.3131,   3.8906,   0.1119,   1.0420,   0.0083
        10.3158,   3.8835,   0.0967,   1.0469,   0.0106
        10.3184,   3.8923,   0.0937,   1.0399,   0.0057
        10.3210,   3.8954,   0.1039,   1.0391,   0.0131
        10.3236,   3.8904,   0.1003,   1.0444,   0.0138
        10.3263,   3.8899,   0.1063,   1.0415,   0.0105
        10.3289,   3.8939,   0.1024,   1.0427,   0.0029
        10.3315,   3.8884,   0.1034,   1.0444,   0.0110
        10.3341,   3.8959,   0.1167,   1.0341,   0.0170
        10.3368,   3.8902,   0.1056,   1.0425,   0.0074
        10.3394,   3.8945,   0.1010,   1.0398,   0.0132
        10.3420,   3.8963,   0.1037,   1.0354,   0.0166
        10.3446,   3.8925,   0.1028,   1.0459,   0.0162
        10.3473,   3.8944,   0.1034,   1.0414,   0.0108
        10.3499,   3.8893,   0.1088,   1.0375,   0.0119
        10.3525,   3.8889,   0.1088,   1.0404,   0.0061
        10.3551,   3.8937,   0.1120,   1.0301,   0.0044
        10.3577,   3.8888,   0.1060,   1.0450,   0.0127
        10.3604,   3.8877,   0.1094,   1.0439,   0.0053
        10.3630,   3.8871,   0.1035,   1.0450,   0.0126
        10.3656,   3.8869,   0.1050,   1.0429,   0.0174
        10.3683,   3.8821,   0.1071,   1.0458,   0.0101
        10.3709,   3.8882,   0.1040,   1.0436,   0.0157
        10.3735,   3.8888,   0.0996,   1.0383,   0.0079
        10.3761,   3.8867,   0.1026,   1.0456,   0.0108
        10.3788,   3.8818,   0.1054,   1.0494,   0.0061
        10.3814,   3.8913,   0.1126,   1.0491,   0.0114
        10.3840,   3.8843,   0.1010,   1.0448,   0.0103
        10.3866,   3.8927,   0.1018,   1.0447,   0.0079
        10.3893,   3.8901,   0.1114,   1.0412,   0.0100
        10.3919,   3.8832,   0.1084,   1.0467,   0.0150
        10.3945,   3.8989,   0.1056,   1.0442,   0.0139
        10.3971,   3.8882,   0.0996,   1.0425,   0.0012
        10.3997,   3.8843,   0.1084,   1.0440,   0.0142
        10.4024,   3.8900,   0.1156,   1.0457,   0.0145
        10.4050,   3.8855,   0.1010,   1.0481,   0.0118
        10.4076,   3.8890,   0.1080,   1.0430,   0.0128
        10.4103,   3.8938,   0.0894,   1.0501,   0.0054
        10.4129,   3.8889,   0.1011,   1.0448,   0.0093
        10.4155,   3.8827,   0.0994,   1.0444,   0.0048
        10.4181,   3.8787,   0.1052,   1.0432,   0.0087
        10.4208,   3.8908,   0.0999,   1.0456,   0.0108
        10.4234,   3.8900,   0.1080,   1.0442,   0.0114
        10.4260,   3.8859,   0.1124,   1.0413,   0.0108
        10.4286,   3.8876,   0.0976,   1.0486,   0.0087
        10.4313,   3.8909,   0.1017,   1.0470,   0.0056
        10.4339,   3.8915,   0.1053,   1.0427,   0.0117
        10.4365,   3.8952,   0.1030,   1.0399,   0.0143
        10.4391,   3.8897,   0.1040,   1.0436,   0.0071
        10.4418,   3.8923,   0.1008,   1.0428,   0.0122
        10.4444,   3.8961,   0.1043,   1.0370,   0.0120
        10.4470,   3.8890,   0.1007,   1.0453,   0.0149
        10.4496,   3.8893,   0.1054,   1.0458,   0.0091
        10.4522,   3.8986,   0.1013,   1.0404,   0.0118
        10.4549,   3.8898,   0.1022,   1.0410,   0.0102
        10.4575,   3.8954,   0.1059,   1.0444,   0.0119
        10.4601,   3.8903,   0.1059,   1.0446,   0.0109
        10.4628,   3.8945,   0.1071,   1.0410,   0.0043
        10.4654,   3.8942,   0.1056,   1.0417,   0.0108
        10.4680,   3.8914,   0.1018,   1.0452,   0.0142
        10.4706,   3.8888,   0.1085,   1.0430,   0.0129
        10.4733,   3.8872,   0.1043,   1.0445,   0.0135
        10.4759,   3.8943,   0.1001,   1.0440,   0.0078
        10.4785,   3.8918,   0.1045,   1.0438,   0.0082
        10.4811,   3.8831,   0.1010,   1.0437,   0.0071
        10.4838,   3.8862,   0.1026,   1.0430,   0.0118
        10.4864,   3.8744,   0.1093,   1.0393,   0.0124
        10.4890,   3.8857,   0.1032,   1.0481,   0.0100
        10.4916,   3.8879,   0.1042,   1.0434,   0.0140
        10.4942,   3.8891,   0.1027,   1.0501,   0.0137
        10.4969,   3.8877,   0.1133,   1.0397,   0.0213
        10.4995,   3.8926,   0.1070,   1.0431,   0.0133
        10.5021,   3.8923,   0.1100,   1.0544,   0.0099
        10.5048,   3.8896,   0.1165,   1.0489,   0.0066
        10.5074,   3.8838,   0.1106,   1.0460,   0.0048
        10.5100,   3.8979,   0.1150,   1.0469,   0.0119
        10.5126,   3.8919,   0.1107,   1.0468,   0.0089
        10.5153,   3.8881,   0.1195,   1.0460,   0.0083
        10.5179,   3.8916,   0.1105,   1.0494,   0.0055
        10.5205,   3.8899,   0.1117,   1.0483,   0.0042
        10.5231,   3.8867,   0.1108,   1.0438,   0.0034
        10.5258,   3.8884,   0.1096,   1.0498,   0.0060
        10.5284,   3.8862,   0.1158,   1.0526,   0.0050
        10.5310,   3.8898,   0.1143,   1.0472,   0.0090
        10.5336,   3.8936,   0.1106,   1.0428,   0.0113
        10.5363,   3.8974,   0.1080,   1.0496,   0.0061
        10.5389,   3.8896,   0.1087,   1.0494,   0.0079
        10.5415,   3.8883,   0.1090,   1.0470,   0.0082
        10.5441,   3.8911,   0.1134,   1.0484,   0.0069
        10.5467,   3.8916,   0.1100,   1.0513,   0.0118
        10.5494,   3.8912,   0.1131,   1.0560,   0.0049
        10.5520,   3.8862,   0.1056,   1.0499,   0.0089
        10.5546,   3.8969,   0.1047,   1.0519,   0.0050
        10.5573,   3.8956,   0.1059,   1.0488,   0.0089
        10.5599,   3.8960,   0.1016,   1.0479,   0.0081
        10.5625,   3.8895,   0.1136,   1.0508,   0.0076
        10.5651,   3.8935,   0.1055,   1.0544,   0.0069
        10.5678,   3.8913,   0.1122,   1.0489,   0.0083
        10.5704,   3.8856,   0.1002,   1.0447,   0.0062
        10.5730,   3.8871,   0.1044,   1.0467,   0.0047
        10.5756,   3.8920,   0.1049,   1.0484,   0.0055
        10.5783,   3.8844,   0.1110,   1.0364,   0.0051
        10.5809,   3.8918,   0.1140,   1.0522,   0.0110
        10.5835,   3.8880,   0.1128,   1.0464,   0.0119
        10.5861,   3.8859,   0.1150,   1.0512,   0.0094
        10.5887,   3.8941,   0.1141,   1.0494,   0.0119
        10.5914,   3.8928,   0.1151,   1.0444,   0.0077
        10.5940,   3.8880,   0.1120,   1.0493,   0.0103
        10.5966,   3.8910,   0.1086,   1.0487,   0.0094
        10.5993,   3.8938,   0.1123,   1.0471,   0.0079
        10.6019,   3.8925,   0.1083,   1.0475,   0.0117
        10.6045,   3.8916,   0.1126,   1.0532,   0.0075
        10.6071,   3.8903,   0.1085,   1.0525,   0.0114
        10.6098,   3.8918,   0.1160,   1.0511,   0.0082
        10.6124,   3.8888,   0.1145,   1.0534,   0.0091
        10.6150,   3.8888,   0.1149,   1.0515,   0.0128
        10.6176,   3.8926,   0.1114,   1.0508,   0.0120
        10.6203,   3.8922,   0.1080,   1.0512,   0.0062
        10.6229,   3.8936,   0.1097,   1.0579,   0.0082
        10.6255,   3.8909,   0.1045,   1.0538,   0.0110
        10.6281,   3.8861,   0.1063,   1.0505,   0.0130
        10.6308,   3.8822,   0.1180,   1.0545,   0.0169
        10.6334,   3.9003,   0.1128,   1.0488,   0.0118
        10.6360,   3.8937,   0.1091,   1.0547,   0.0078
        10.6386,   3.8845,   0.1060,   1.0479,   0.0076
        10.6412,   3.8886,   0.1116,   1.0499,   0.0145
        10.6439,   3.8839,   0.1085,   1.0492,   0.0150
        10.6465,   3.8933,   0.1070,   1.0528,   0.0111
        10.6491,   3.8928,   0.1040,   1.0544,   0.0110
        10.6518,   3.8923,   0.1117,   1.0543,   0.0171
        10.6544,   3.8834,   0.1100,   1.0449,   0.0124
        10.6570,   3.8914,   0.1076,   1.0509,   0.0083
        10.6596,   3.8843,   0.1050,   1.0489,   0.0081
        10.6623,   3.8858,   0.1150,   1.0544,   0.0179
        10.6649,   3.8895,   0.1043,   1.0534,   0.0096
        10.6675,   3.8974,   0.1064,   1.0599,   0.0122
        10.6701,   3.8932,   0.1092,   1.0530,   0.0150
        10.6728,   3.8947,   0.1127,   1.0533,   0.0150
        10.6754,   3.8864,   0.1061,   1.0506,   0.0067
        10.6780,   3.8881,   0.1042,   1.0519,   0.0123
        10.6806,   3.8924,   0.1084,   1.0532,   0.0186
        10.6832,   3.8938,   0.1059,   1.0592,   0.0149
        10.6859,   3.8942,   0.1116,   1.0536,   0.0173
        10.6885,   3.8887,   0.1081,   1.0506,   0.0124
        10.6911,   3.8896,   0.1087,   1.0550,   0.0120
        10.6938,   3.8889,   0.1068,   1.0516,   0.0156
        10.6964,   3.8912,   0.1106,   1.0559,   0.0186
        10.6990,   3.8904,   0.1053,   1.0516,   0.0154
        10.7016,   3.8936,   0.1097,   1.0554,   0.0143
        10.7043,   3.8882,   0.1091,   1.0552,   0.0192
        10.7069,   3.8906,   0.1102,   1.0581,   0.0219
        10.7095,   3.8893,   0.1113,   1.0539,   0.0143
        10.7121,   3.8855,   0.1057,   1.0541,   0.0172
        10.7148,   3.8901,   0.1065,   1.0563,   0.0150
        10.7174,   3.8956,   0.1074,   1.0576,   0.0201
        10.7200,   3.8916,   0.1004,   1.0504,   0.0099
        10.7226,   3.8858,   0.1072,   1.0504,   0.0174
        10.7253,   3.8876,   0.1090,   1.0543,   0.0209
        10.7279,   3.8868,   0.1031,   1.0566,   0.0161
        10.7305,   3.8855,   0.1037,   1.0557,   0.0184
        10.7331,   3.8919,   0.1135,   1.0581,   0.0258
        10.7357,   3.8914,   0.1070,   1.0570,   0.0224
        10.7384,   3.8910,   0.0990,   1.0564,   0.0172
        10.7410,   3.8880,   0.0991,   1.0530,   0.0158
        10.7436,   3.8885,   0.1132,   1.0544,   0.0267
        10.7463,   3.8955,   0.0944,   1.0597,   0.0104
        10.7489,   3.8916,   0.1010,   1.0587,   0.0179
        10.7515,   3.8946,   0.1064,   1.0604,   0.0237
        10.7541,   3.8868,   0.1163,   1.0530,   0.0326
        10.7568,   3.8883,   0.1028,   1.0531,   0.0185
        10.7594,   3.8901,   0.1038,   1.0596,   0.0240
        10.7620,   3.8929,   0.1112,   1.0549,   0.0306
        10.7646,   3.8911,   0.1084,   1.0553,   0.0234
        10.7673,   3.8952,   0.1015,   1.0581,   0.0209
        10.7699,   3.8910,   0.1040,   1.0553,   0.0250
        10.7725,   3.8885,   0.1041,   1.0527,   0.0240
        10.7751,   3.8940,   0.1041,   1.0577,   0.0246
        10.7777,   3.8931,   0.1018,   1.0540,   0.0245
        10.7804,   3.8880,   0.1056,   1.0524,   0.0259
        10.7830,   3.8888,   0.1056,   1.0525,   0.0287
        10.7856,   3.8891,   0.1032,   1.0536,   0.0275
        10.7883,   3.8882,   0.1025,   1.0512,   0.0282
        10.7909,   3.8892,   0.1035,   1.0527,   0.0300
        10.7935,   3.8916,   0.1075,   1.0536,   0.0323
        10.7961,   3.8893,   0.1020,   1.0481,   0.0272
        10.7988,   3.8892,   0.1052,   1.0507,   0.0309
        10.8014,   3.8954,   0.1043,   1.0579,   0.0314
        10.8040,   3.8953,   0.1023,   1.0571,   0.0290
        10.8066,   3.8872,   0.1029,   1.0440,   0.0320
        10.8093,   3.8858,   0.1088,   1.0424,   0.0350
        10.8119,   3.8933,   0.1005,   1.0552,   0.0290
        10.8145,   3.8922,   0.1011,   1.0501,   0.0333
        10.8171,   3.8892,   0.1103,   1.0476,   0.0406
        10.8198,   3.8991,   0.1005,   1.0556,   0.0289
        10.8224,   3.8828,   0.1045,   1.0350,   0.0375
        10.8250,   3.8944,   0.0996,   1.0486,   0.0268
        10.8276,   3.8941,   0.1105,   1.0488,   0.0428
        10.8302,   3.8891,   0.1009,   1.0413,   0.0317
        10.8329,   3.8898,   0.1018,   1.0432,   0.0318
        10.8355,   3.8906,   0.1041,   1.0421,   0.0399
        10.8381,   3.8978,   0.1034,   1.0479,   0.0341
        10.8408,   3.8976,   0.1081,   1.0442,   0.0392
        10.8434,   3.8935,   0.1027,   1.0423,   0.0338
        10.8460,   3.9001,   0.1023,   1.0472,   0.0326
        10.8486,   3.8987,   0.1030,   1.0482,   0.0332
        10.8513,   3.8962,   0.1007,   1.0431,   0.0349
        10.8539,   3.9009,   0.1039,   1.0441,   0.0355
        10.8565,   3.8945,   0.1022,   1.0381,   0.0345
        10.8591,   3.8967,   0.1040,   1.0379,   0.0367
        10.8618,   3.8994,   0.1023,   1.0385,   0.0345
        10.8644,   3.8991,   0.0999,   1.0400,   0.0319
        10.8670,   3.8974,   0.1033,   1.0345,   0.0326
        10.8696,   3.8962,   0.1069,   1.0352,   0.0399
        10.8722,   3.9014,   0.1024,   1.0374,   0.0380
        10.8749,   3.9047,   0.1009,   1.0388,   0.0306
        10.8775,   3.9041,   0.1086,   1.0358,   0.0343
        10.8801,   3.9043,   0.0958,   1.0330,   0.0275
        10.8828,   3.8978,   0.0995,   1.0328,   0.0313
        10.8854,   3.9065,   0.0974,   1.0378,   0.0283
        10.8880,   3.9014,   0.1120,   1.0358,   0.0343
        10.8906,   3.9019,   0.0988,   1.0301,   0.0247
        10.8933,   3.9097,   0.1089,   1.0343,   0.0361
        10.8959,   3.8994,   0.1038,   1.0295,   0.0316
        10.8985,   3.9000,   0.1039,   1.0263,   0.0253
        10.9011,   3.9024,   0.1007,   1.0277,   0.0260
        10.9038,   3.9083,   0.1114,   1.0301,   0.0323
        10.9064,   3.8974,   0.1092,   1.0223,   0.0305
        10.9090,   3.9061,   0.1019,   1.0283,   0.0241
        10.9116,   3.9106,   0.1110,   1.0323,   0.0315
        10.9142,   3.9026,   0.1111,   1.0277,   0.0289
        10.9169,   3.9022,   0.1064,   1.0245,   0.0296
        10.9195,   3.9040,   0.0984,   1.0302,   0.0227
        10.9221,   3.9087,   0.1059,   1.0271,   0.0256
        10.9248,   3.9075,   0.1033,   1.0252,   0.0244
        10.9274,   3.9032,   0.1061,   1.0228,   0.0243
        10.9300,   3.9061,   0.1074,   1.0241,   0.0232
        10.9326,   3.9023,   0.1063,   1.0250,   0.0264
        10.9353,   3.9020,   0.1042,   1.0257,   0.0191
        10.9379,   3.9088,   0.1075,   1.0291,   0.0245
        10.9405,   3.9040,   0.1037,   1.0253,   0.0256
        10.9431,   3.9055,   0.1066,   1.0222,   0.0234
        10.9458,   3.9055,   0.1079,   1.0254,   0.0207
        10.9484,   3.9048,   0.1107,   1.0252,   0.0221
        10.9510,   3.9037,   0.1135,   1.0234,   0.0269
        10.9536,   3.9069,   0.1060,   1.0269,   0.0187
        10.9563,   3.9072,   0.1118,   1.0284,   0.0252
        10.9589,   3.9049,   0.1073,   1.0240,   0.0207
        10.9615,   3.9024,   0.1110,   1.0253,   0.0230
        10.9641,   3.9056,   0.1045,   1.0217,   0.0166
        10.9667,   3.9012,   0.1067,   1.0203,   0.0192
        10.9694,   3.9035,   0.1108,   1.0236,   0.0206
        10.9720,   3.9033,   0.1044,   1.0230,   0.0089
        10.9746,   3.9103,   0.0998,   1.0311,   0.0152
        10.9773,   3.9071,   0.1090,   1.0299,   0.0159
        10.9799,   3.9072,   0.1042,   1.0305,   0.0146
        10.9825,   3.9031,   0.1181,   1.0211,   0.0240
        10.9851,   3.9058,   0.1107,   1.0261,   0.0193
        10.9878,   3.9137,   0.1115,   1.0376,   0.0136
        10.9904,   3.9045,   0.1134,   1.0260,   0.0190
        10.9930,   3.9115,   0.1078,   1.0317,   0.0135
        10.9956,   3.8992,   0.1127,   1.0210,   0.0173
        10.9983,   3.9011,   0.1074,   1.0193,   0.0117
        11.0009,   3.9035,   0.1139,   1.0234,   0.0171
        11.0035,   3.8962,   0.1105,   1.0203,   0.0076
        11.0061,   3.9053,   0.1093,   1.0249,   0.0125
        11.0087,   3.8997,   0.1119,   1.0296,   0.0152
        11.0114,   3.9021,   0.1174,   1.0274,   0.0192
        11.0140,   3.8986,   0.1122,   1.0291,   0.0177
        11.0166,   3.8995,   0.1149,   1.0255,   0.0171
        11.0193,   3.9008,   0.1077,   1.0232,   0.0101
        11.0219,   3.9033,   0.1112,   1.0282,   0.0115
        11.0245,   3.8990,   0.1162,   1.0308,   0.0145
        11.0271,   3.9053,   0.1100,   1.0245,   0.0119
        11.0298,   3.9054,   0.1147,   1.0262,   0.0122
        11.0324,   3.8951,   0.1113,   1.0263,   0.0112
        11.0350,   3.9029,   0.1203,   1.0257,   0.0140
        11.0376,   3.9033,   0.1123,   1.0252,   0.0080
        11.0403,   3.8949,   0.1172,   1.0318,   0.0108
        11.0429,   3.9035,   0.1059,   1.0253,   0.0146
        11.0455,   3.9086,   0.1092,   1.0259,   0.0123
        11.0481,   3.9009,   0.1101,   1.0277,   0.0114
        11.0508,   3.9038,   0.1151,   1.0289,   0.0129
        11.0534,   3.8883,   0.1116,   1.0271,   0.0058
        11.0560,   3.8986,   0.1139,   1.0245,   0.0108
        11.0586,   3.8987,   0.1162,   1.0302,   0.0105
        11.0612,   3.9090,   0.1106,   1.0265,   0.0131
        11.0639,   3.9020,   0.1154,   1.0282,   0.0175
        11.0665,   3.8952,   0.1081,   1.0232,   0.0150
        11.0691,   3.9017,   0.1135,   1.0252,   0.0080
        11.0718,   3.9007,   0.1149,   1.0279,   0.0109
        11.0744,   3.8987,   0.1059,   1.0272,   0.0008
        11.0770,   3.9011,   0.1259,   1.0248,   0.0131
        11.0796,   3.9058,   0.1103,   1.0351,   0.0134
        11.0823,   3.9014,   0.1136,   1.0265,   0.0076
        11.0849,   3.9028,   0.1120,   1.0344,   0.0080
        11.0875,   3.9030,   0.1087,   1.0314,   0.0141
        11.0901,   3.9011,   0.1123,   1.0265,   0.0096
        11.0928,   3.9055,   0.1134,   1.0287,   0.0102
        11.0954,   3.9056,   0.1109,   1.0315,   0.0107
        11.0980,   3.8956,   0.1100,   1.0311,   0.0095
        11.1006,   3.8999,   0.1117,   1.0327,   0.0104
        11.1032,   3.9036,   0.1152,   1.0310,   0.0100
        11.1059,   3.8997,   0.1129,   1.0340,   0.0084
        11.1085,   3.8984,   0.1131,   1.0318,   0.0114
        11.1111,   3.9007,   0.1129,   1.0321,   0.0125
        11.1138,   3.9004,   0.1121,   1.0290,   0.0098
        11.1164,   3.9030,   0.1196,   1.0331,   0.0096
        11.1190,   3.9013,   0.1127,   1.0364,   0.0105
        11.1216,   3.9007,   0.1101,   1.0309,   0.0106
        11.1243,   3.9004,   0.1100,   1.0336,   0.0071
        11.1269,   3.8999,   0.1089,   1.0295,   0.0077
        11.1295,   3.9030,   0.1176,   1.0314,   0.0086
        11.1321,   3.9013,   0.1111,   1.0288,   0.0034
        11.1348,   3.8967,   0.1152,   1.0283,   0.0094
        11.1374,   3.9032,   0.1200,   1.0353,   0.0103
        11.1400,   3.8984,   0.1105,   1.0331,   0.0080
        11.1426,   3.9004,   0.1132,   1.0357,   0.0103
        11.1453,   3.9066,   0.1170,   1.0266,   0.0087
        11.1479,   3.8976,   0.1104,   1.0263,   0.0097
        11.1505,   3.8956,   0.1111,   1.0331,   0.0042
        11.1531,   3.9026,   0.1166,   1.0299,   0.0096
        11.1557,   3.8999,   0.1161,   1.0304,   0.0105
        11.1584,   3.9011,   0.1139,   1.0321,   0.0096
        11.1610,   3.9009,   0.1123,   1.0305,   0.0098
        11.1636,   3.8989,   0.1125,   1.0324,   0.0080
        11.1663,   3.9014,   0.1155,   1.0352,   0.0141
        11.1689,   3.9034,   0.1106,   1.0310,   0.0159
        11.1715,   3.9023,   0.1171,   1.0298,   0.0114
        11.1741,   3.9010,   0.1152,   1.0364,   0.0069
        11.1768,   3.9019,   0.1192,   1.0346,   0.0015
        11.1794,   3.9024,   0.1176,   1.0339,   0.0054
        11.1820,   3.9013,   0.1181,   1.0289,   0.0069
        11.1846,   3.9028,   0.1157,   1.0306,   0.0105
        11.1873,   3.9054,   0.1166,   1.0321,   0.0043
        11.1899,   3.9042,   0.1152,   1.0318,   0.0073
        11.1925,   3.8983,   0.1177,   1.0356,   0.0086
        11.1951,   3.9008,   0.1191,   1.0315,   0.0110
        11.1977,   3.8991,   0.1150,   1.0290,   0.0079
        11.2004,   3.8996,   0.1172,   1.0316,   0.0078
        11.2030,   3.8993,   0.1187,   1.0304,   0.0086
        11.2056,   3.9062,   0.1074,   1.0319,   0.0022
        11.2083,   3.9016,   0.1122,   1.0296,   0.0088
        11.2109,   3.9029,   0.1213,   1.0303,   0.0074
        11.2135,   3.9006,   0.1083,   1.0321,   0.0065
        11.2161,   3.9007,   0.1245,   1.0294,   0.0072
        11.2188,   3.9006,   0.1188,   1.0306,   0.0138
        11.2214,   3.8918,   0.1108,   1.0345,   0.0032
        11.2240,   3.9010,   0.1144,   1.0346,   0.0069
        11.2266,   3.9043,   0.1129,   1.0320,   0.0036
        11.2293,   3.9036,   0.1174,   1.0295,   0.0057
        11.2319,   3.8912,   0.1237,   1.0329,   0.0070
        11.2345,   3.8923,   0.1141,   1.0297,   0.0034
        11.2371,   3.9049,   0.1036,   1.0404,   0.0053
        11.2398,   3.8918,   0.1155,   1.0307,   0.0016
        11.2424,   3.9073,   0.1196,   1.0276,   0.0125
        11.2450,   3.8999,   0.1098,   1.0381,   0.0104
        11.2476,   3.8968,   0.1183,   1.0292,   0.0066
        11.2502,   3.8999,   0.1146,   1.0310,   0.0052
        11.2529,   3.9004,   0.1146,   1.0348,   0.0077
        11.2555,   3.9036,   0.1118,   1.0313,   0.0117
        11.2581,   3.8958,   0.1129,   1.0318,   0.0049
        11.2608,   3.8998,   0.1143,   1.0349,   0.0063
        11.2634,   3.9014,   0.1061,   1.0345,   0.0113
        11.2660,   3.8975,   0.1112,   1.0361,   0.0124
        11.2686,   3.9005,   0.1120,   1.0310,   0.0109
        11.2713,   3.9009,   0.1078,   1.0313,   0.0085
        11.2739,   3.8966,   0.1133,   1.0331,   0.0092
        11.2765,   3.8996,   0.1145,   1.0315,   0.0097
        11.2791,   3.8970,   0.1160,   1.0357,   0.0075
        11.2818,   3.9009,   0.1136,   1.0339,   0.0080
        11.2844,   3.8992,   0.1102,   1.0334,   0.0100
        11.2870,   3.8987,   0.1163,   1.0349,   0.0111
        11.2896,   3.8905,   0.1122,   1.0309,   0.0125
        11.2922,   3.9020,   0.1117,   1.0359,   0.0097
        11.2949,   3.9036,   0.1158,   1.0337,   0.0078
        11.2975,   3.9062,   0.1157,   1.0388,   0.0074
        11.3001,   3.9145,   0.1192,   1.0330,   0.0124
        11.3028,   3.9082,   0.1225,   1.0379,   0.0146
        11.3054,   3.8968,   0.1033,   1.0352,   0.0028
        11.3080,   3.8988,   0.1185,   1.0319,   0.0115
        11.3106,   3.8971,   0.1198,   1.0317,   0.0171
        11.3133,   3.9039,   0.1098,   1.0336,   0.0042
        11.3159,   3.9031,   0.1051,   1.0380,   0.0050
        11.3185,   3.8998,   0.1125,   1.0357,   0.0078
        11.3211,   3.8984,   0.1187,   1.0268,   0.0065
        11.3238,   3.8981,   0.1198,   1.0343,   0.0118
        11.3264,   3.9005,   0.1179,   1.0274,   0.0087
        11.3290,   3.8910,   0.1203,   1.0310,   0.0044
        11.3316,   3.8971,   0.1142,   1.0360,   0.0069
        11.3343,   3.9031,   0.1115,   1.0283,   0.0129
        11.3369,   3.8979,   0.1215,   1.0350,   0.0043
        11.3395,   3.8966,   0.1135,   1.0362,   0.0082
        11.3421,   3.8972,   0.1180,   1.0408,   0.0055
        11.3447,   3.8979,   0.1110,   1.0338,   0.0133
        11.3474,   3.9008,   0.1185,   1.0319,   0.0044
        11.3500,   3.9023,   0.1141,   1.0310,   0.0032
        11.3526,   3.8981,   0.1130,   1.0335,   0.0110
        11.3553,   3.9004,   0.1187,   1.0350,   0.0099
        11.3579,   3.9026,   0.1176,   1.0387,   0.0030
        11.3605,   3.9055,   0.1122,   1.0317,   0.0041
        11.3631,   3.8932,   0.1127,   1.0320,   0.0033
        11.3658,   3.9094,   0.1206,   1.0392,   0.0068
        11.3684,   3.8949,   0.1109,   1.0303,   0.0043
        11.3710,   3.9026,   0.1180,   1.0376,   0.0045
        11.3736,   3.9004,   0.1096,   1.0346,   0.0003
        11.3763,   3.8979,   0.1165,   1.0376,   0.0061
        11.3789,   3.9057,   0.1138,   1.0357,   0.0043
        11.3815,   3.8981,   0.1111,   1.0401,   0.0022
        11.3841,   3.8970,   0.1225,   1.0388,   0.0068
        11.3867,   3.8988,   0.1084,   1.0334,   0.0063
        11.3894,   3.9007,   0.1110,   1.0361,   0.0011
        11.3920,   3.9049,   0.1188,   1.0353,   0.0087
        11.3946,   3.8995,   0.1133,   1.0361,   0.0050
        11.3973,   3.8979,   0.1059,   1.0356,  -0.0007
        11.3999,   3.8917,   0.1149,   1.0344,   0.0049
        11.4025,   3.8925,   0.1165,   1.0332,   0.0044
        11.4051,   3.8986,   0.1124,   1.0349,   0.0040
        11.4078,   3.9041,   0.1104,   1.0370,   0.0023
        11.4104,   3.9025,   0.1132,   1.0386,   0.0050
        11.4130,   3.8944,   0.1095,   1.0392,   0.0066
        11.4156,   3.8920,   0.1139,   1.0291,   0.0035
        11.4183,   3.9023,   0.1157,   1.0328,   0.0054
        11.4209,   3.8949,   0.1137,   1.0382,   0.0079
        11.4235,   3.9022,   0.1144,   1.0376,   0.0093
        11.4261,   3.8965,   0.1136,   1.0356,   0.0097
        11.4288,   3.8990,   0.1131,   1.0386,   0.0099
        11.4314,   3.9023,   0.1148,   1.0380,   0.0062
        11.4340,   3.8999,   0.1157,   1.0376,   0.0101
        11.4366,   3.9050,   0.1165,   1.0376,   0.0090
        11.4392,   3.9008,   0.1160,   1.0374,   0.0077
        11.4419,   3.9036,   0.1201,   1.0397,   0.0088
        11.4445,   3.8986,   0.1143,   1.0361,   0.0109
        11.4471,   3.9027,   0.1153,   1.0374,   0.0079
        11.4498,   3.9070,   0.1156,   1.0382,   0.0058
        11.4524,   3.9019,   0.1081,   1.0330,   0.0047
        11.4550,   3.9050,   0.1140,   1.0368,   0.0063
        11.4576,   3.9061,   0.1200,   1.0372,   0.0072
        11.4603,   3.9004,   0.1162,   1.0369,   0.0108
        11.4629,   3.8935,   0.1177,   1.0318,   0.0105
        11.4655,   3.9021,   0.1148,   1.0359,   0.0071
        11.4681,   3.8991,   0.1182,   1.0348,   0.0049
        11.4708,   3.9050,   0.1157,   1.0368,   0.0064
        11.4734,   3.9019,   0.1176,   1.0343,   0.0106
        11.4760,   3.9061,   0.1206,   1.0385,   0.0095
        11.4786,   3.9037,   0.1097,   1.0347,  -0.0028
        11.4812,   3.9015,   0.1129,   1.0420,   0.0074
        11.4839,   3.9007,   0.1161,   1.0330,   0.0066
        11.4865,   3.8971,   0.1190,   1.0381,   0.0062
        11.4891,   3.9019,   0.1074,   1.0418,   0.0027
        11.4918,   3.8930,   0.1177,   1.0305,   0.0041
        11.4944,   3.8993,   0.1147,   1.0341,   0.0099
        11.4970,   3.9019,   0.1211,   1.0354,   0.0118
        11.4996,   3.8999,   0.1150,   1.0364,   0.0037
        11.5023,   3.8979,   0.1186,   1.0322,   0.0075
        11.5049,   3.8934,   0.1199,   1.0336,  -0.0011
        11.5075,   3.8963,   0.1176,   1.0353,   0.0084
        11.5101,   3.8941,   0.1147,   1.0376,   0.0042
        11.5128,   3.8956,   0.1174,   1.0411,   0.0091
        11.5154,   3.8947,   0.1147,   1.0357,   0.0098
        11.5180,   3.9004,   0.1129,   1.0347,   0.0036
        11.5206,   3.8945,   0.1169,   1.0376,   0.0053
        11.5233,   3.9022,   0.1195,   1.0380,   0.0051
        11.5259,   3.9019,   0.1202,   1.0401,   0.0040
        11.5285,   3.8929,   0.1173,   1.0395,   0.0078
        11.5311,   3.8988,   0.1213,   1.0393,   0.0096
        11.5338,   3.8968,   0.1170,   1.0357,   0.0043
        11.5364,   3.8889,   0.1162,   1.0347,   0.0058
        11.5390,   3.9040,   0.1119,   1.0382,   0.0050
        11.5416,   3.8926,   0.1208,   1.0369,   0.0051
        11.5443,   3.9047,   0.1181,   1.0417,   0.0034
        11.5469,   3.8944,   0.1132,   1.0381,   0.0081
        11.5495,   3.9008,   0.1205,   1.0367,   0.0062
        11.5521,   3.8922,   0.1137,   1.0323,   0.0088
        11.5548,   3.8889,   0.1164,   1.0309,   0.0042
        11.5574,   3.8937,   0.1153,   1.0345,   0.0064
        11.5600,   3.9062,   0.1078,   1.0423,  -0.0038
        11.5626,   3.8935,   0.1258,   1.0363,   0.0131
        11.5653,   3.8989,   0.1204,   1.0376,   0.0053
        11.5679,   3.8963,   0.1234,   1.0414,   0.0111
        11.5705,   3.8983,   0.1192,   1.0377,   0.0086
        11.5731,   3.9002,   0.1211,   1.0401,   0.0086
        11.5757,   3.8934,   0.1252,   1.0337,   0.0109
        11.5784,   3.9003,   0.1167,   1.0428,   0.0075
        11.5810,   3.9059,   0.1182,   1.0423,   0.0092
        11.5836,   3.9041,   0.1197,   1.0400,   0.0058
        11.5863,   3.9004,   0.1157,   1.0359,   0.0042
        11.5889,   3.9049,   0.1204,   1.0410,   0.0069
        11.5915,   3.8994,   0.1139,   1.0384,   0.0052
        11.5941,   3.8996,   0.1154,   1.0370,   0.0077
        11.5968,   3.8992,   0.1160,   1.0378,   0.0073
        11.5994,   3.9028,   0.1132,   1.0411,   0.0044
        11.6020,   3.8974,   0.1156,   1.0349,   0.0047
        11.6046,   3.9026,   0.1180,   1.0405,   0.0076
        11.6073,   3.9017,   0.1129,   1.0388,   0.0050
        11.6099,   3.9010,   0.1162,   1.0372,   0.0074
        11.6125,   3.9033,   0.1174,   1.0404,   0.0067
        11.6151,   3.9039,   0.1168,   1.0389,   0.0065
        11.6177,   3.9011,   0.1183,   1.0391,   0.0056
        11.6204,   3.8985,   0.1150,   1.0355,   0.0068
        11.6230,   3.8995,   0.1100,   1.0342,   0.0005
        11.6256,   3.8966,   0.1215,   1.0350,   0.0115
        11.6283,   3.8970,   0.1174,   1.0330,   0.0058
        11.6309,   3.9000,   0.1076,   1.0357,  -0.0026
        11.6335,   3.9068,   0.1127,   1.0439,   0.0014
        11.6361,   3.8938,   0.1192,   1.0331,   0.0086
        11.6388,   3.8977,   0.1143,   1.0360,   0.0045
        11.6414,   3.9048,   0.1197,   1.0437,   0.0065
        11.6440,   3.8962,   0.1183,   1.0364,   0.0067
        11.6466,   3.9010,   0.1131,   1.0396,   0.0016
        11.6493,   3.8933,   0.1205,   1.0323,   0.0106
        11.6519,   3.9028,   0.1131,   1.0390,   0.0032
        11.6545,   3.8969,   0.1166,   1.0359,   0.0070
        11.6571,   3.8976,   0.1162,   1.0353,   0.0036
        11.6598,   3.8977,   0.1196,   1.0345,   0.0091
        11.6624,   3.8984,   0.1183,   1.0353,   0.0049
        11.6650,   3.8973,   0.1147,   1.0370,   0.0035
        11.6676,   3.8994,   0.1175,   1.0382,   0.0017
        11.6702,   3.9039,   0.1160,   1.0399,   0.0051
        11.6729,   3.8990,   0.1162,   1.0370,   0.0051
        11.6755,   3.8982,   0.1163,   1.0364,   0.0056
        11.6781,   3.8983,   0.1148,   1.0371,   0.0046
        11.6808,   3.8980,   0.1181,   1.0375,   0.0053
        11.6834,   3.9013,   0.1193,   1.0392,   0.0049
        11.6860,   3.9016,   0.1219,   1.0389,   0.0099
        11.6886,   3.9025,   0.1181,   1.0391,   0.0062
        11.6913,   3.8983,   0.1181,   1.0358,   0.0057
        11.6939,   3.8998,   0.1156,   1.0359,   0.0048
        11.6965,   3.9005,   0.1159,   1.0369,   0.0053
        11.6991,   3.8965,   0.1156,   1.0351,   0.0057
        11.7018,   3.8975,   0.1158,   1.0355,   0.0054
        11.7044,   3.9014,   0.1227,   1.0380,   0.0090
        11.7070,   3.9020,   0.1124,   1.0406,   0.0005
        11.7096,   3.8985,   0.1157,   1.0350,   0.0043
        11.7122,   3.8999,   0.1245,   1.0376,   0.0121
        11.7149,   3.8976,   0.1104,   1.0374,   0.0027
        11.7175,   3.9003,   0.1213,   1.0382,   0.0080
        11.7201,   3.8981,   0.1209,   1.0378,   0.0088
        11.7228,   3.8980,   0.1279,   1.0375,   0.0113
        11.7254,   3.8930,   0.1186,   1.0364,   0.0054
        11.7280,   3.9047,   0.1151,   1.0420,   0.0034
        11.7306,   3.9028,   0.1118,   1.0365,   0.0016
        11.7333,   3.9063,   0.1126,   1.0426,   0.0021
        11.7359,   3.8957,   0.1202,   1.0313,   0.0085
        11.7385,   3.9055,   0.1099,   1.0404,   0.0010
        11.7411,   3.9025,   0.1234,   1.0392,   0.0088
        11.7438,   3.9028,   0.1165,   1.0379,   0.0013
        11.7464,   3.9018,   0.1212,   1.0376,   0.0082
        11.7490,   3.9024,   0.1207,   1.0387,   0.0073
        11.7516,   3.9016,   0.1163,   1.0398,   0.0073
        11.7543,   3.9003,   0.1215,   1.0337,   0.0067
        11.7569,   3.9007,   0.1174,   1.0387,   0.0074
        11.7595,   3.8980,   0.1172,   1.0377,   0.0045
        11.7621,   3.8989,   0.1204,   1.0392,   0.0053
        11.7647,   3.8999,   0.1177,   1.0376,   0.0034
        11.7674,   3.9014,   0.1215,   1.0384,   0.0035
        11.7700,   3.8996,   0.1196,   1.0392,   0.0059
        11.7726,   3.8926,   0.1180,   1.0378,   0.0066
        11.7753,   3.9037,   0.1214,   1.0397,   0.0084
        11.7779,   3.9056,   0.1206,   1.0385,   0.0042
        11.7805,   3.9012,   0.1178,   1.0400,   0.0034
        11.7831,   3.8947,   0.1194,   1.0368,   0.0091
        11.7858,   3.9039,   0.1186,   1.0419,   0.0085
        11.7884,   3.8939,   0.1173,   1.0374,   0.0053
        11.7910,   3.8994,   0.1262,   1.0394,   0.0131
        11.7936,   3.9127,   0.1190,   1.0443,   0.0059
        11.7963,   3.8947,   0.1174,   1.0370,   0.0073
        11.7989,   3.8935,   0.1132,   1.0358,   0.0013
        11.8015,   3.8987,   0.1260,   1.0383,   0.0129
        11.8041,   3.8943,   0.1202,   1.0392,   0.0085
        11.8067,   3.8895,   0.1295,   1.0317,   0.0124
        11.8094,   3.8972,   0.1208,   1.0377,   0.0108
        11.8120,   3.8973,   0.1174,   1.0421,   0.0022
        11.8146,   3.8948,   0.1164,   1.0406,   0.0033
        11.8173,   3.8961,   0.1199,   1.0397,   0.0068
        11.8199,   3.8987,   0.1194,   1.0382,   0.0051
        11.8225,   3.9034,   0.1219,   1.0370,   0.0072
        11.8251,   3.8917,   0.1206,   1.0363,   0.0097
        11.8278,   3.8997,   0.1156,   1.0403,   0.0033
        11.8304,   3.9004,   0.1178,   1.0420,   0.0004
        11.8330,   3.9044,   0.1157,   1.0390,   0.0060
        11.8356,   3.8975,   0.1234,   1.0367,   0.0083
        11.8383,   3.9037,   0.1174,   1.0402,   0.0081
        11.8409,   3.9030,   0.1136,   1.0411,   0.0022
        11.8435,   3.8989,   0.1197,   1.0373,   0.0076
        11.8461,   3.9019,   0.1151,   1.0368,   0.0065
        11.8488,   3.9010,   0.1219,   1.0377,   0.0065
        11.8514,   3.8994,   0.1168,   1.0381,   0.0042
        11.8540,   3.8972,   0.1184,   1.0376,   0.0062
        11.8566,   3.9023,   0.1143,   1.0382,   0.0046
        11.8592,   3.8971,   0.1214,   1.0386,   0.0062
        11.8619,   3.8995,   0.1124,   1.0378,   0.0030
        11.8645,   3.8963,   0.1167,   1.0376,   0.0114
        11.8671,   3.8995,   0.1143,   1.0378,   0.0098
        11.8698,   3.9021,   0.1287,   1.0401,   0.0067
        11.8724,   3.8952,   0.1177,   1.0359,   0.0031
        11.8750,   3.8960,   0.1199,   1.0385,   0.0031
        11.8776,   3.8950,   0.1154,   1.0367,   0.0039
        11.8803,   3.8987,   0.1197,   1.0407,   0.0077
        11.8829,   3.9064,   0.1192,   1.0423,   0.0086
        11.8855,   3.9015,   0.1194,   1.0377,   0.0029
        11.8881,   3.9069,   0.1137,   1.0424,   0.0079
        11.8908,   3.8929,   0.1199,   1.0331,  -0.0020
        11.8934,   3.9044,   0.1186,   1.0353,   0.0041
        11.8960,   3.9003,   0.1225,   1.0390,   0.0122
        11.8986,   3.9014,   0.1116,   1.0412,  -0.0013
        11.9012,   3.8970,   0.1154,   1.0372,   0.0014
        11.9039,   3.8945,   0.1222,   1.0392,   0.0028
        11.9065,   3.8907,   0.1194,   1.0339,   0.0025
        11.9091,   3.8965,   0.1185,   1.0367,   0.0071
        11.9118,   3.9001,   0.1139,   1.0434,   0.0021
        11.9144,   3.8920,   0.1162,   1.0391,   0.0087
        11.9170,   3.9021,   0.1243,   1.0382,   0.0004
        11.9196,   3.9019,   0.1173,   1.0345,   0.0059
        11.9223,   3.8969,   0.1135,   1.0363,   0.0070
        11.9249,   3.8970,   0.1170,   1.0358,   0.0063
        11.9275,   3.9014,   0.1183,   1.0379,   0.0068
        11.9301,   3.8926,   0.1206,   1.0394,   0.0044
        11.9328,   3.8990,   0.1133,   1.0392,   0.0102
        11.9354,   3.9017,   0.1058,   1.0368,   0.0028
        11.9380,   3.8913,   0.1163,   1.0386,   0.0071
        11.9406,   3.8982,   0.1166,   1.0396,   0.0080
        11.9433,   3.8926,   0.1189,   1.0384,   0.0034
        11.9459,   3.8916,   0.1189,   1.0357,   0.0091
        11.9485,   3.8946,   0.1215,   1.0385,   0.0083
        11.9511,   3.9003,   0.1101,   1.0401,   0.0046
        11.9537,   3.8996,   0.1173,   1.0433,   0.0064
        11.9564,   3.8941,   0.1050,   1.0347,   0.0009
        11.9590,   3.8937,   0.1163,   1.0344,   0.0072
        11.9616,   3.9067,   0.1075,   1.0384,   0.0046
        11.9643,   3.9029,   0.1297,   1.0386,   0.0093
        11.9669,   3.8990,   0.1167,   1.0422,   0.0048
        11.9695,   3.8981,   0.1172,   1.0410,   0.0044
        11.9721,   3.8998,   0.1135,   1.0357,   0.0040
        11.9748,   3.8951,   0.1171,   1.0391,   0.0032
        11.9774,   3.8930,   0.1160,   1.0388,   0.0055
        11.9800,   3.9007,   0.1151,   1.0433,   0.0103
        11.9826,   3.9062,   0.1144,   1.0445,   0.0081
        11.9853,   3.8993,   0.1132,   1.0409,  -0.0001
        11.9879,   3.9047,   0.1155,   1.0489,   0.0041
        11.9905,   3.8943,   0.1226,   1.0404,   0.0058
        11.9931,   3.8946,   0.1237,   1.0324,   0.0060
        11.9957,   3.8986,   0.1198,   1.0424,   0.0069
        11.9984,   3.8975,   0.1140,   1.0423,   0.0026
        12.0010,   3.8950,   0.1155,   1.0375,   0.0037
        12.0036,   3.8966,   0.1222,   1.0456,   0.0076
        12.0063,   3.8983,   0.1209,   1.0391,   0.0033
        12.0089,   3.9024,   0.1230,   1.0371,   0.0036
        12.0115,   3.9004,   0.1209,   1.0398,   0.0076
        12.0141,   3.8973,   0.1154,   1.0405,   0.0067
        12.0168,   3.8993,   0.1186,   1.0397,   0.0052
        12.0194,   3.8962,   0.1278,   1.0378,   0.0068
        12.0220,   3.9032,   0.1113,   1.0391,   0.0048
        12.0246,   3.8920,   0.1173,   1.0401,   0.0075
        12.0273,   3.8937,   0.1199,   1.0364,   0.0069
        12.0299,   3.8929,   0.1150,   1.0389,   0.0057
        12.0325,   3.9007,   0.1184,   1.0398,   0.0078
        12.0351,   3.8930,   0.1104,   1.0398,   0.0053
        12.0378,   3.8968,   0.1108,   1.0396,   0.0051
        12.0404,   3.8954,   0.1183,   1.0398,   0.0058
        12.0430,   3.8960,   0.1107,   1.0469,   0.0006
        12.0456,   3.8988,   0.1070,   1.0444,   0.0038
        12.0482,   3.8934,   0.1152,   1.0367,   0.0024
        12.0509,   3.8965,   0.1129,   1.0422,   0.0078
        12.0535,   3.8989,   0.1209,   1.0404,   0.0032
        12.0561,   3.8960,   0.1122,   1.0421,   0.0051
        12.0588,   3.8916,   0.1086,   1.0393,   0.0000
        12.0614,   3.9005,   0.1118,   1.0415,   0.0020
        12.0640,   3.8989,   0.1130,   1.0412,   0.0035
        12.0666,   3.8950,   0.1142,   1.0488,   0.0087
        12.0693,   3.8937,   0.1154,   1.0447,   0.0069
        12.0719,   3.8979,   0.1194,   1.0358,   0.0096
        12.0745,   3.8974,   0.1129,   1.0394,   0.0081
        12.0771,   3.9016,   0.1170,   1.0352,   0.0043
        12.0798,   3.8963,   0.1162,   1.0426,   0.0070
        12.0824,   3.8974,   0.1201,   1.0400,   0.0027
        12.0850,   3.9012,   0.1201,   1.0382,   0.0026
        12.0876,   3.8952,   0.1160,   1.0430,   0.0072
        12.0902,   3.8946,   0.1142,   1.0391,   0.0108
        12.0929,   3.8985,   0.1152,   1.0420,   0.0074
        12.0955,   3.8960,   0.1142,   1.0364,   0.0069
        12.0981,   3.8971,   0.1165,   1.0420,   0.0077
        12.1008,   3.9005,   0.1200,   1.0415,   0.0016
        12.1034,   3.9046,   0.1192,   1.0425,   0.0052
        12.1060,   3.8918,   0.1240,   1.0429,   0.0062
        12.1086,   3.9034,   0.1140,   1.0429,   0.0098
        12.1113,   3.9047,   0.1201,   1.0435,   0.0082
        12.1139,   3.8949,   0.1182,   1.0409,   0.0099
        12.1165,   3.8918,   0.1170,   1.0406,   0.0085
        12.1191,   3.8870,   0.1278,   1.0379,   0.0070
        12.1218,   3.9010,   0.1154,   1.0389,   0.0071
        12.1244,   3.8946,   0.1173,   1.0371,   0.0064
        12.1270,   3.8949,   0.1172,   1.0387,   0.0095
        12.1296,   3.8900,   0.1208,   1.0390,   0.0092
        12.1323,   3.9003,   0.1225,   1.0429,   0.0067
        12.1349,   3.8981,   0.1212,   1.0402,   0.0083
        12.1375,   3.8955,   0.1139,   1.0385,   0.0021
        12.1401,   3.9008,   0.1250,   1.0418,   0.0108
        12.1427,   3.8943,   0.1218,   1.0355,   0.0081
        12.1454,   3.8998,   0.1179,   1.0412,   0.0085
        12.1480,   3.8986,   0.1202,   1.0396,   0.0029
        12.1506,   3.8989,   0.1212,   1.0411,   0.0076
        12.1533,   3.8994,   0.1143,   1.0436,   0.0046
        12.1559,   3.8987,   0.1135,   1.0407,   0.0057
        12.1585,   3.8982,   0.1161,   1.0363,   0.0079
        12.1611,   3.9003,   0.1204,   1.0428,   0.0047
        12.1638,   3.8969,   0.1156,   1.0390,   0.0066
        12.1664,   3.8971,   0.1220,   1.0413,   0.0044
        12.1690,   3.8905,   0.1165,   1.0426,   0.0108
        12.1716,   3.8960,   0.1209,   1.0399,   0.0055
        12.1743,   3.8999,   0.1238,   1.0428,  -0.0008
        12.1769,   3.8982,   0.1142,   1.0390,   0.0079
        12.1795,   3.8954,   0.1223,   1.0439,   0.0032
        12.1821,   3.8914,   0.1181,   1.0388,   0.0078
        12.1847,   3.8944,   0.1216,   1.0406,   0.0055
        12.1874,   3.8936,   0.1211,   1.0405,   0.0057
        12.1900,   3.8988,   0.1217,   1.0417,   0.0061
        12.1926,   3.8974,   0.1189,   1.0410,   0.0054
        12.1953,   3.8999,   0.1177,   1.0411,   0.0032
        12.1979,   3.8891,   0.1179,   1.0361,   0.0075
        12.2005,   3.9061,   0.1234,   1.0425,   0.0077
        12.2031,   3.8895,   0.1203,   1.0359,   0.0050
        12.2058,   3.9011,   0.1221,   1.0395,   0.0093
        12.2084,   3.8993,   0.1058,   1.0439,   0.0006
        12.2110,   3.8894,   0.1230,   1.0382,   0.0048
        12.2136,   3.8876,   0.1189,   1.0404,   0.0078
        12.2163,   3.8902,   0.1184,   1.0447,  -0.0028
        12.2189,   3.8998,   0.1141,   1.0405,   0.0054
        12.2215,   3.8973,   0.1157,   1.0466,   0.0054
        12.2241,   3.8913,   0.1139,   1.0379,   0.0092
        12.2267,   3.8887,   0.1145,   1.0384,   0.0021
        12.2294,   3.8963,   0.1271,   1.0406,   0.0034
        12.2320,   3.8928,   0.1119,   1.0411,   0.0096
        12.2346,   3.8957,   0.1124,   1.0476,   0.0011
        12.2373,   3.8974,   0.1157,   1.0468,  -0.0002
        12.2399,   3.8951,   0.1271,   1.0414,   0.0091
        12.2425,   3.8955,   0.1182,   1.0422,   0.0058
        12.2451,   3.8952,   0.1192,   1.0448,   0.0087
        12.2478,   3.8930,   0.1222,   1.0468,   0.0036
        12.2504,   3.8931,   0.1176,   1.0464,   0.0062
        12.2530,   3.8987,   0.1186,   1.0462,   0.0030
        12.2556,   3.8985,   0.1211,   1.0444,   0.0060
        12.2583,   3.8986,   0.1235,   1.0464,   0.0073
        12.2609,   3.8939,   0.1174,   1.0441,   0.0079
        12.2635,   3.8973,   0.1168,   1.0441,   0.0062
        12.2661,   3.8986,   0.1180,   1.0428,   0.0085
        12.2688,   3.9023,   0.1145,   1.0430,   0.0089
        12.2714,   3.9072,   0.1152,   1.0436,   0.0064
        12.2740,   3.9023,   0.1262,   1.0441,   0.0123
        12.2766,   3.9020,   0.1178,   1.0430,   0.0073
        12.2792,   3.8995,   0.1189,   1.0434,   0.0085
        12.2819,   3.8969,   0.1146,   1.0394,   0.0096
        12.2845,   3.8913,   0.1282,   1.0412,   0.0078
        12.2871,   3.9046,   0.1201,   1.0435,   0.0070
        12.2898,   3.8981,   0.1184,   1.0446,   0.0099
        12.2924,   3.8965,   0.1136,   1.0420,   0.0035
        12.2950,   3.9030,   0.1134,   1.0433,   0.0035
        12.2976,   3.8999,   0.1190,   1.0411,   0.0070
        12.3003,   3.9012,   0.1263,   1.0417,   0.0088
        12.3029,   3.9082,   0.1138,   1.0460,   0.0027
        12.3055,   3.9029,   0.1207,   1.0425,   0.0079
        12.3081,   3.8988,   0.1097,   1.0420,   0.0039
        12.3108,   3.8949,   0.1198,   1.0383,   0.0045
        12.3134,   3.9072,   0.1157,   1.0398,   0.0043
        12.3160,   3.9060,   0.1205,   1.0457,   0.0059
        12.3186,   3.9003,   0.1240,   1.0402,   0.0092
        12.3212,   3.8979,   0.1185,   1.0402,   0.0059
        12.3239,   3.8999,   0.1202,   1.0367,   0.0029
        12.3265,   3.9024,   0.1199,   1.0413,   0.0044
        12.3291,   3.9026,   0.1209,   1.0406,   0.0073
        12.3318,   3.9004,   0.1226,   1.0452,   0.0081
        12.3344,   3.8938,   0.1224,   1.0452,   0.0085
        12.3370,   3.9013,   0.1167,   1.0401,   0.0055
        12.3396,   3.9021,   0.1204,   1.0414,   0.0068
        12.3423,   3.9047,   0.1196,   1.0425,   0.0051
        12.3449,   3.8992,   0.1234,   1.0431,   0.0079
        12.3475,   3.8980,   0.1198,   1.0417,   0.0055
        12.3501,   3.9036,   0.1240,   1.0439,   0.0059
        12.3528,   3.9025,   0.1175,   1.0437,   0.0092
        12.3554,   3.8989,   0.1206,   1.0435,   0.0058
        12.3580,   3.9078,   0.1136,   1.0421,   0.0026
        12.3606,   3.9064,   0.1162,   1.0446,   0.0046
        12.3633,   3.8998,   0.1153,   1.0465,   0.0060
        12.3659,   3.8987,   0.1193,   1.0422,   0.0060
        12.3685,   3.8980,   0.1224,   1.0425,   0.0065
        12.3711,   3.8869,   0.1110,   1.0396,   0.0050
        12.3737,   3.9006,   0.1195,   1.0447,   0.0079
        12.3764,   3.8926,   0.1096,   1.0405,   0.0027
        12.3790,   3.9008,   0.1147,   1.0423,   0.0058
        12.3816,   3.8884,   0.1180,   1.0386,   0.0054
        12.3843,   3.8999,   0.1147,   1.0423,   0.0064
        12.3869,   3.9050,   0.1165,   1.0461,   0.0051
        12.3895,   3.8971,   0.1111,   1.0416,   0.0054
        12.3921,   3.8979,   0.1134,   1.0432,   0.0042
        12.3948,   3.9009,   0.1222,   1.0443,   0.0097
        12.3974,   3.9104,   0.1261,   1.0485,   0.0146
        12.4000,   3.9141,   0.1156,   1.0500,   0.0031

