Transmission Line And Free Space Method 15.1.16021801
Agilent Technologies,N5230C,MY49000690,A.09.42.22

Ch 1
Ports:, 1 & 2
Measurement Model:, Reflection/Transmission Mu and Epsilon
Sample Holder Type:, Waveguide
Cutoff Frequency:, 9.487103 GHz
Sample Holder Length:, 6.500000 mm
Distance to Sample:, 0.000000 mm
Sample Thickness:, 2.000000 mm
IFBW:, 300.000000 Hz
Power:, 0.000000 dBm
Date:,"Friday, January 01, 1988 04:04:08"
frequency(GHz),e',e'',u',u''
        12.4000,   4.6784,   0.1428,   0.9948,   0.0058
        12.4035,   4.6751,   0.1483,   0.9978,   0.0017
        12.4070,   4.6775,   0.1446,   0.9961,  -0.0069
        12.4105,   4.6757,   0.1536,   0.9950,  -0.0024
        12.4140,   4.6755,   0.1544,   0.9961,   0.0040
        12.4175,   4.6722,   0.1521,   0.9902,   0.0007
        12.4210,   4.6803,   0.1465,   0.9934,   0.0022
        12.4245,   4.6744,   0.1461,   0.9965,  -0.0014
        12.4280,   4.6886,   0.1512,   1.0019,   0.0041
        12.4315,   4.6659,   0.1362,   0.9865,  -0.0061
        12.4350,   4.6732,   0.1366,   0.9941,  -0.0065
        12.4385,   4.6693,   0.1562,   0.9865,   0.0027
        12.4420,   4.6760,   0.1431,   1.0004,  -0.0036
        12.4455,   4.6618,   0.1487,   0.9923,   0.0053
        12.4490,   4.6737,   0.1424,   0.9923,   0.0026
        12.4525,   4.6776,   0.1457,   0.9958,   0.0002
        12.4560,   4.6757,   0.1486,   0.9983,   0.0005
        12.4595,   4.6763,   0.1462,   0.9940,  -0.0017
        12.4630,   4.6781,   0.1458,   0.9955,   0.0022
        12.4665,   4.6828,   0.1470,   0.9991,   0.0004
        12.4700,   4.6823,   0.1409,   0.9965,  -0.0031
        12.4735,   4.6834,   0.1493,   0.9959,   0.0072
        12.4770,   4.6789,   0.1483,   0.9919,   0.0018
        12.4805,   4.6737,   0.1478,   0.9927,   0.0041
        12.4840,   4.6792,   0.1514,   0.9940,   0.0038
        12.4875,   4.6792,   0.1504,   1.0033,  -0.0012
        12.4910,   4.6883,   0.1368,   0.9912,  -0.0049
        12.4945,   4.6754,   0.1484,   0.9938,   0.0043
        12.4980,   4.6857,   0.1435,   0.9999,   0.0025
        12.5015,   4.6839,   0.1478,   0.9956,   0.0085
        12.5050,   4.6814,   0.1564,   0.9996,   0.0077
        12.5085,   4.6899,   0.1539,   0.9980,   0.0010
        12.5120,   4.6845,   0.1530,   0.9943,   0.0003
        12.5155,   4.6788,   0.1481,   0.9908,  -0.0008
        12.5190,   4.6850,   0.1507,   1.0024,   0.0014
        12.5225,   4.6711,   0.1555,   0.9911,   0.0055
        12.5260,   4.6764,   0.1465,   0.9948,   0.0028
        12.5295,   4.6832,   0.1514,   1.0040,   0.0003
        12.5330,   4.6829,   0.1509,   0.9996,  -0.0031
        12.5365,   4.6860,   0.1366,   1.0074,  -0.0130
        12.5400,   4.6790,   0.1472,   0.9951,  -0.0077
        12.5435,   4.6819,   0.1459,   0.9980,  -0.0061
        12.5470,   4.6747,   0.1473,   0.9953,  -0.0061
        12.5505,   4.6726,   0.1428,   0.9921,  -0.0060
        12.5540,   4.6761,   0.1494,   0.9906,   0.0061
        12.5575,   4.6781,   0.1463,   0.9916,  -0.0010
        12.5610,   4.6694,   0.1547,   0.9955,   0.0076
        12.5645,   4.6814,   0.1559,   0.9997,   0.0044
        12.5680,   4.6857,   0.1622,   1.0021,   0.0046
        12.5715,   4.6806,   0.1391,   0.9943,  -0.0080
        12.5750,   4.6787,   0.1377,   0.9996,  -0.0076
        12.5785,   4.6863,   0.1515,   1.0058,  -0.0012
        12.5820,   4.6759,   0.1489,   0.9966,   0.0033
        12.5855,   4.6895,   0.1500,   1.0068,  -0.0024
        12.5890,   4.6808,   0.1472,   0.9982,  -0.0061
        12.5925,   4.6747,   0.1384,   0.9983,  -0.0143
        12.5960,   4.6877,   0.1425,   1.0049,  -0.0099
        12.5995,   4.6818,   0.1483,   0.9989,  -0.0034
        12.6030,   4.6808,   0.1629,   1.0032,   0.0057
        12.6065,   4.6877,   0.1380,   1.0029,  -0.0079
        12.6100,   4.6850,   0.1451,   1.0024,  -0.0065
        12.6135,   4.6881,   0.1508,   1.0079,   0.0008
        12.6170,   4.6899,   0.1484,   1.0064,  -0.0014
        12.6205,   4.6731,   0.1555,   0.9932,   0.0079
        12.6240,   4.6807,   0.1484,   0.9986,  -0.0038
        12.6275,   4.6808,   0.1493,   0.9984,  -0.0016
        12.6310,   4.6798,   0.1470,   0.9979,   0.0010
        12.6345,   4.6849,   0.1447,   1.0021,  -0.0004
        12.6380,   4.6802,   0.1419,   1.0005,  -0.0047
        12.6415,   4.6794,   0.1543,   1.0006,   0.0020
        12.6450,   4.6680,   0.1479,   0.9893,   0.0019
        12.6485,   4.6768,   0.1484,   0.9975,  -0.0014
        12.6520,   4.6804,   0.1474,   1.0009,   0.0011
        12.6555,   4.6737,   0.1482,   0.9950,   0.0012
        12.6590,   4.6758,   0.1533,   0.9938,   0.0062
        12.6625,   4.6791,   0.1504,   0.9978,   0.0060
        12.6660,   4.6835,   0.1478,   1.0047,   0.0025
        12.6695,   4.6832,   0.1513,   1.0010,   0.0059
        12.6730,   4.6871,   0.1422,   1.0096,  -0.0072
        12.6765,   4.6794,   0.1408,   0.9947,   0.0010
        12.6800,   4.6851,   0.1460,   1.0040,  -0.0000
        12.6835,   4.6816,   0.1405,   0.9952,  -0.0053
        12.6870,   4.6753,   0.1474,   0.9953,  -0.0028
        12.6905,   4.6796,   0.1402,   0.9979,  -0.0022
        12.6940,   4.6882,   0.1564,   1.0041,   0.0041
        12.6975,   4.6844,   0.1586,   1.0020,   0.0045
        12.7010,   4.6806,   0.1498,   1.0008,  -0.0014
        12.7045,   4.6768,   0.1507,   0.9893,   0.0007
        12.7080,   4.6771,   0.1479,   0.9931,   0.0020
        12.7115,   4.6721,   0.1439,   0.9926,   0.0006
        12.7150,   4.6778,   0.1471,   1.0033,   0.0020
        12.7185,   4.6812,   0.1449,   0.9985,  -0.0080
        12.7220,   4.6811,   0.1586,   1.0016,   0.0029
        12.7255,   4.6734,   0.1444,   0.9984,  -0.0025
        12.7290,   4.6768,   0.1456,   1.0009,   0.0074
        12.7325,   4.6794,   0.1515,   0.9983,  -0.0033
        12.7360,   4.6802,   0.1465,   0.9969,   0.0007
        12.7395,   4.6797,   0.1520,   1.0012,   0.0073
        12.7430,   4.6806,   0.1482,   1.0056,   0.0025
        12.7465,   4.6854,   0.1490,   0.9929,  -0.0035
        12.7500,   4.6761,   0.1581,   0.9953,   0.0098
        12.7535,   4.6764,   0.1501,   0.9972,  -0.0026
        12.7570,   4.6787,   0.1527,   0.9988,   0.0018
        12.7605,   4.6747,   0.1494,   1.0010,  -0.0016
        12.7640,   4.6760,   0.1566,   0.9961,   0.0072
        12.7675,   4.6620,   0.1436,   0.9908,  -0.0030
        12.7710,   4.6819,   0.1388,   1.0021,  -0.0012
        12.7745,   4.6789,   0.1514,   0.9988,  -0.0002
        12.7780,   4.6721,   0.1504,   0.9994,   0.0061
        12.7815,   4.6804,   0.1547,   0.9936,   0.0141
        12.7850,   4.6827,   0.1392,   0.9980,  -0.0048
        12.7885,   4.6851,   0.1493,   1.0028,  -0.0062
        12.7920,   4.6730,   0.1390,   0.9995,   0.0022
        12.7955,   4.6737,   0.1462,   0.9960,   0.0007
        12.7990,   4.6806,   0.1587,   1.0040,  -0.0081
        12.8025,   4.6807,   0.1347,   1.0035,  -0.0081
        12.8060,   4.6769,   0.1446,   1.0020,   0.0049
        12.8095,   4.6832,   0.1467,   0.9953,  -0.0034
        12.8130,   4.6757,   0.1483,   1.0054,   0.0037
        12.8165,   4.6730,   0.1454,   1.0007,   0.0031
        12.8200,   4.6746,   0.1523,   0.9993,  -0.0079
        12.8235,   4.6757,   0.1399,   0.9984,   0.0037
        12.8270,   4.6811,   0.1522,   1.0053,  -0.0014
        12.8305,   4.6648,   0.1734,   1.0049,   0.0086
        12.8340,   4.6566,   0.1530,   0.9905,   0.0046
        12.8375,   4.6822,   0.1541,   0.9971,  -0.0045
        12.8410,   4.6740,   0.1669,   1.0037,   0.0014
        12.8445,   4.6821,   0.1536,   0.9986,  -0.0065
        12.8480,   4.6695,   0.1499,   1.0022,   0.0011
        12.8515,   4.6711,   0.1423,   0.9957,   0.0005
        12.8550,   4.6778,   0.1370,   0.9981,  -0.0018
        12.8585,   4.6662,   0.1593,   0.9915,   0.0105
        12.8620,   4.6816,   0.1497,   0.9939,  -0.0025
        12.8655,   4.6775,   0.1383,   1.0029,   0.0025
        12.8690,   4.6730,   0.1535,   0.9947,  -0.0022
        12.8725,   4.6765,   0.1467,   0.9970,   0.0012
        12.8760,   4.6846,   0.1462,   0.9975,   0.0008
        12.8795,   4.6769,   0.1494,   0.9977,   0.0029
        12.8830,   4.6707,   0.1539,   0.9965,  -0.0039
        12.8865,   4.6802,   0.1492,   0.9933,   0.0007
        12.8900,   4.6854,   0.1532,   0.9960,  -0.0130
        12.8935,   4.6792,   0.1509,   0.9990,  -0.0030
        12.8970,   4.6746,   0.1473,   1.0009,  -0.0011
        12.9005,   4.6804,   0.1447,   0.9956,  -0.0019
        12.9040,   4.6766,   0.1600,   1.0005,   0.0077
        12.9075,   4.6874,   0.1614,   0.9941,  -0.0051
        12.9110,   4.6862,   0.1448,   0.9987,  -0.0019
        12.9145,   4.6750,   0.1581,   1.0065,   0.0079
        12.9180,   4.6804,   0.1635,   1.0035,   0.0027
        12.9215,   4.6873,   0.1495,   0.9973,   0.0064
        12.9250,   4.6727,   0.1575,   0.9987,  -0.0037
        12.9285,   4.6720,   0.1548,   1.0003,   0.0031
        12.9320,   4.6785,   0.1646,   1.0013,   0.0044
        12.9355,   4.6680,   0.1572,   0.9956,  -0.0027
        12.9390,   4.6781,   0.1459,   1.0007,  -0.0084
        12.9425,   4.6705,   0.1641,   0.9913,   0.0029
        12.9460,   4.6881,   0.1573,   1.0029,   0.0004
        12.9495,   4.6766,   0.1642,   0.9949,  -0.0031
        12.9530,   4.6794,   0.1437,   0.9942,  -0.0006
        12.9565,   4.6769,   0.1373,   1.0004,   0.0016
        12.9600,   4.6868,   0.1601,   0.9966,   0.0040
        12.9635,   4.6834,   0.1557,   0.9967,   0.0048
        12.9670,   4.6665,   0.1498,   1.0022,  -0.0024
        12.9705,   4.6751,   0.1404,   1.0001,  -0.0083
        12.9740,   4.6706,   0.1495,   1.0058,   0.0007
        12.9775,   4.6854,   0.1496,   0.9913,   0.0038
        12.9810,   4.6748,   0.1501,   0.9973,  -0.0035
        12.9845,   4.6731,   0.1553,   1.0001,   0.0035
        12.9880,   4.6806,   0.1403,   0.9925,   0.0040
        12.9915,   4.6855,   0.1335,   0.9938,  -0.0075
        12.9950,   4.6899,   0.1380,   0.9960,  -0.0113
        12.9985,   4.6718,   0.1471,   0.9971,  -0.0001
        13.0020,   4.6913,   0.1468,   1.0021,  -0.0121
        13.0055,   4.6985,   0.1395,   0.9950,  -0.0115
        13.0090,   4.6956,   0.1400,   0.9991,  -0.0083
        13.0125,   4.6800,   0.1449,   1.0033,  -0.0040
        13.0160,   4.6723,   0.1623,   0.9938,   0.0027
        13.0195,   4.6734,   0.1588,   0.9974,   0.0047
        13.0230,   4.6836,   0.1325,   1.0012,   0.0041
        13.0265,   4.6827,   0.1589,   0.9962,   0.0002
        13.0300,   4.6714,   0.1681,   0.9921,  -0.0001
        13.0335,   4.6783,   0.1423,   0.9936,  -0.0014
        13.0370,   4.6933,   0.1459,   0.9956,   0.0056
        13.0405,   4.6678,   0.1472,   1.0019,  -0.0096
        13.0440,   4.6827,   0.1302,   0.9993,   0.0010
        13.0475,   4.6813,   0.1522,   0.9942,   0.0009
        13.0510,   4.6802,   0.1562,   0.9952,  -0.0012
        13.0545,   4.6758,   0.1473,   0.9980,  -0.0010
        13.0580,   4.6788,   0.1506,   0.9989,   0.0072
        13.0615,   4.6760,   0.1504,   0.9981,   0.0020
        13.0650,   4.6800,   0.1453,   0.9992,   0.0053
        13.0685,   4.6663,   0.1560,   1.0061,   0.0030
        13.0720,   4.6712,   0.1518,   0.9898,  -0.0013
        13.0755,   4.6562,   0.1607,   0.9988,   0.0054
        13.0790,   4.6977,   0.1320,   1.0011,  -0.0128
        13.0825,   4.6983,   0.1343,   0.9964,   0.0046
        13.0860,   4.6609,   0.1478,   0.9931,   0.0054
        13.0895,   4.6731,   0.1385,   0.9923,  -0.0066
        13.0930,   4.6566,   0.1433,   0.9906,  -0.0020
        13.0965,   4.6912,   0.1386,   1.0029,  -0.0012
        13.1000,   4.6593,   0.1624,   1.0012,  -0.0012
        13.1035,   4.6674,   0.1619,   0.9918,   0.0016
        13.1070,   4.6799,   0.1491,   1.0012,  -0.0012
        13.1105,   4.6595,   0.1594,   0.9947,   0.0026
        13.1140,   4.6652,   0.1605,   0.9982,  -0.0011
        13.1175,   4.6771,   0.1448,   1.0037,  -0.0003
        13.1210,   4.6792,   0.1364,   1.0006,   0.0071
        13.1245,   4.6763,   0.1407,   0.9979,  -0.0021
        13.1280,   4.6744,   0.1436,   1.0014,  -0.0100
        13.1315,   4.6871,   0.1511,   0.9961,  -0.0012
        13.1350,   4.6789,   0.1530,   0.9920,  -0.0068
        13.1385,   4.6744,   0.1453,   1.0052,  -0.0053
        13.1420,   4.6793,   0.1385,   0.9959,   0.0013
        13.1455,   4.6691,   0.1542,   1.0062,  -0.0034
        13.1490,   4.6812,   0.1506,   0.9945,  -0.0073
        13.1525,   4.6724,   0.1520,   0.9983,  -0.0039
        13.1560,   4.6768,   0.1451,   0.9984,   0.0016
        13.1595,   4.6686,   0.1555,   1.0106,   0.0063
        13.1630,   4.6789,   0.1474,   0.9983,   0.0053
        13.1665,   4.6626,   0.1485,   0.9937,   0.0085
        13.1700,   4.6785,   0.1549,   1.0059,   0.0004
        13.1735,   4.6813,   0.1496,   0.9931,   0.0014
        13.1770,   4.6653,   0.1384,   1.0003,  -0.0028
        13.1805,   4.6826,   0.1482,   0.9980,  -0.0003
        13.1840,   4.6756,   0.1443,   0.9960,   0.0057
        13.1875,   4.6677,   0.1488,   1.0007,   0.0035
        13.1910,   4.6659,   0.1559,   0.9911,   0.0052
        13.1945,   4.6679,   0.1495,   1.0001,   0.0026
        13.1980,   4.6615,   0.1440,   0.9996,   0.0024
        13.2015,   4.6849,   0.1558,   0.9949,  -0.0021
        13.2050,   4.6785,   0.1523,   0.9992,   0.0078
        13.2085,   4.6778,   0.1493,   0.9985,  -0.0018
        13.2120,   4.6780,   0.1420,   1.0019,   0.0009
        13.2155,   4.6792,   0.1373,   1.0010,   0.0059
        13.2190,   4.6783,   0.1541,   0.9942,   0.0039
        13.2225,   4.6833,   0.1475,   0.9964,   0.0057
        13.2260,   4.6839,   0.1462,   0.9912,   0.0011
        13.2295,   4.6774,   0.1524,   1.0054,  -0.0032
        13.2330,   4.6874,   0.1539,   0.9978,   0.0010
        13.2365,   4.6673,   0.1474,   0.9981,   0.0029
        13.2400,   4.6762,   0.1554,   1.0021,   0.0038
        13.2435,   4.6707,   0.1496,   0.9953,   0.0080
        13.2470,   4.6651,   0.1554,   0.9940,   0.0068
        13.2505,   4.6791,   0.1616,   0.9984,   0.0066
        13.2540,   4.6869,   0.1548,   1.0031,   0.0007
        13.2575,   4.6714,   0.1559,   0.9955,   0.0017
        13.2610,   4.6557,   0.1573,   0.9913,   0.0069
        13.2645,   4.6800,   0.1525,   0.9976,  -0.0039
        13.2680,   4.6676,   0.1484,   0.9958,   0.0011
        13.2715,   4.6894,   0.1694,   1.0058,   0.0046
        13.2750,   4.6710,   0.1226,   0.9899,  -0.0180
        13.2785,   4.6824,   0.1620,   0.9998,   0.0103
        13.2820,   4.6729,   0.1528,   0.9978,  -0.0002
        13.2855,   4.6682,   0.1504,   1.0025,  -0.0004
        13.2890,   4.6723,   0.1444,   0.9993,  -0.0106
        13.2925,   4.6826,   0.1476,   1.0021,  -0.0016
        13.2960,   4.6720,   0.1561,   0.9943,   0.0052
        13.2995,   4.6760,   0.1569,   0.9910,   0.0025
        13.3030,   4.6586,   0.1631,   0.9908,  -0.0007
        13.3065,   4.6787,   0.1498,   1.0049,  -0.0008
        13.3100,   4.6750,   0.1600,   1.0006,   0.0021
        13.3135,   4.6745,   0.1474,   0.9996,  -0.0104
        13.3170,   4.6781,   0.1497,   0.9992,  -0.0029
        13.3205,   4.6764,   0.1574,   0.9977,   0.0021
        13.3240,   4.6776,   0.1496,   1.0017,  -0.0005
        13.3275,   4.6734,   0.1491,   1.0000,  -0.0004
        13.3310,   4.6807,   0.1563,   1.0037,   0.0028
        13.3345,   4.6830,   0.1506,   1.0018,  -0.0035
        13.3380,   4.6800,   0.1387,   0.9996,  -0.0014
        13.3415,   4.6733,   0.1476,   0.9959,   0.0030
        13.3450,   4.6888,   0.1561,   1.0067,   0.0030
        13.3485,   4.6869,   0.1493,   1.0049,  -0.0044
        13.3520,   4.6742,   0.1483,   0.9947,  -0.0005
        13.3555,   4.6835,   0.1528,   1.0054,   0.0086
        13.3590,   4.6702,   0.1530,   0.9951,  -0.0010
        13.3625,   4.6750,   0.1443,   0.9975,  -0.0057
        13.3660,   4.6794,   0.1431,   0.9996,  -0.0043
        13.3695,   4.6826,   0.1433,   1.0045,  -0.0016
        13.3730,   4.6802,   0.1541,   0.9987,   0.0067
        13.3765,   4.6717,   0.1507,   0.9926,  -0.0029
        13.3800,   4.6724,   0.1520,   1.0021,   0.0007
        13.3835,   4.6782,   0.1489,   0.9929,   0.0053
        13.3870,   4.6749,   0.1561,   0.9962,   0.0063
        13.3905,   4.6736,   0.1467,   0.9943,   0.0023
        13.3940,   4.6725,   0.1440,   0.9982,  -0.0047
        13.3975,   4.6745,   0.1559,   1.0051,   0.0037
        13.4010,   4.6756,   0.1473,   0.9953,  -0.0005
        13.4045,   4.6779,   0.1374,   0.9939,  -0.0031
        13.4080,   4.6800,   0.1539,   0.9988,  -0.0007
        13.4115,   4.6848,   0.1583,   1.0027,  -0.0020
        13.4150,   4.6749,   0.1538,   1.0004,  -0.0024
        13.4185,   4.6725,   0.1547,   0.9999,  -0.0050
        13.4220,   4.6791,   0.1529,   1.0018,  -0.0032
        13.4255,   4.6759,   0.1552,   1.0030,  -0.0003
        13.4290,   4.6677,   0.1421,   0.9957,  -0.0103
        13.4325,   4.6661,   0.1546,   0.9973,   0.0046
        13.4360,   4.6738,   0.1594,   1.0021,   0.0017
        13.4395,   4.6805,   0.1472,   0.9979,  -0.0130
        13.4430,   4.6756,   0.1577,   0.9993,   0.0031
        13.4465,   4.6730,   0.1623,   1.0027,   0.0030
        13.4500,   4.6880,   0.1583,   1.0098,  -0.0038
        13.4535,   4.6660,   0.1585,   0.9980,   0.0019
        13.4570,   4.6740,   0.1541,   1.0032,  -0.0015
        13.4605,   4.6866,   0.1466,   1.0049,  -0.0006
        13.4640,   4.6673,   0.1549,   0.9960,   0.0024
        13.4675,   4.6830,   0.1534,   1.0029,  -0.0033
        13.4710,   4.6872,   0.1559,   1.0020,  -0.0003
        13.4745,   4.6692,   0.1398,   0.9951,  -0.0064
        13.4780,   4.6861,   0.1504,   1.0058,  -0.0013
        13.4815,   4.6746,   0.1472,   0.9992,  -0.0021
        13.4850,   4.6711,   0.1340,   0.9958,  -0.0050
        13.4885,   4.6779,   0.1481,   0.9997,  -0.0058
        13.4920,   4.6767,   0.1515,   0.9972,  -0.0044
        13.4955,   4.6775,   0.1465,   0.9991,  -0.0062
        13.4990,   4.6687,   0.1569,   0.9959,   0.0028
        13.5025,   4.6766,   0.1485,   0.9999,   0.0014
        13.5060,   4.6783,   0.1527,   1.0031,  -0.0022
        13.5095,   4.6681,   0.1435,   0.9935,  -0.0034
        13.5130,   4.6722,   0.1568,   0.9984,   0.0058
        13.5165,   4.6765,   0.1517,   0.9992,   0.0028
        13.5200,   4.6757,   0.1569,   0.9981,   0.0068
        13.5235,   4.6754,   0.1461,   0.9992,  -0.0059
        13.5270,   4.6633,   0.1394,   0.9912,  -0.0067
        13.5305,   4.6620,   0.1570,   0.9910,   0.0015
        13.5340,   4.6695,   0.1511,   0.9975,  -0.0000
        13.5375,   4.6697,   0.1453,   0.9978,  -0.0074
        13.5410,   4.6782,   0.1574,   1.0000,   0.0052
        13.5445,   4.6742,   0.1576,   0.9977,   0.0054
        13.5480,   4.6798,   0.1467,   1.0017,  -0.0049
        13.5515,   4.6681,   0.1389,   0.9937,  -0.0141
        13.5550,   4.6696,   0.1597,   0.9988,   0.0074
        13.5585,   4.6678,   0.1584,   0.9964,   0.0012
        13.5620,   4.6708,   0.1516,   0.9991,   0.0017
        13.5655,   4.6707,   0.1496,   1.0012,  -0.0017
        13.5690,   4.6747,   0.1542,   0.9994,   0.0018
        13.5725,   4.6756,   0.1493,   1.0004,   0.0004
        13.5760,   4.6721,   0.1519,   0.9978,  -0.0024
        13.5795,   4.6670,   0.1556,   0.9981,  -0.0009
        13.5830,   4.6651,   0.1659,   0.9986,   0.0008
        13.5865,   4.6772,   0.1498,   1.0030,  -0.0076
        13.5900,   4.6765,   0.1649,   1.0056,   0.0044
        13.5935,   4.6710,   0.1514,   0.9993,   0.0028
        13.5970,   4.6757,   0.1579,   1.0013,  -0.0015
        13.6005,   4.6789,   0.1614,   1.0045,  -0.0012
        13.6040,   4.6866,   0.1572,   1.0058,  -0.0005
        13.6075,   4.6653,   0.1548,   1.0000,  -0.0044
        13.6110,   4.6761,   0.1628,   1.0034,   0.0008
        13.6145,   4.6721,   0.1451,   0.9997,  -0.0034
        13.6180,   4.6708,   0.1667,   0.9977,   0.0058
        13.6215,   4.6605,   0.1607,   0.9956,  -0.0054
        13.6250,   4.6750,   0.1493,   1.0000,  -0.0004
        13.6285,   4.6647,   0.1479,   0.9977,  -0.0033
        13.6320,   4.6770,   0.1524,   0.9956,   0.0035
        13.6355,   4.6785,   0.1514,   1.0023,  -0.0030
        13.6390,   4.6687,   0.1484,   0.9981,   0.0012
        13.6425,   4.6711,   0.1646,   1.0023,   0.0032
        13.6460,   4.6797,   0.1491,   1.0007,  -0.0016
        13.6495,   4.6750,   0.1575,   0.9960,  -0.0035
        13.6530,   4.6631,   0.1605,   0.9965,   0.0025
        13.6565,   4.6726,   0.1491,   0.9943,  -0.0005
        13.6600,   4.6820,   0.1542,   0.9965,   0.0010
        13.6635,   4.6673,   0.1502,   0.9982,  -0.0061
        13.6670,   4.6839,   0.1596,   0.9998,   0.0074
        13.6705,   4.6841,   0.1549,   1.0020,  -0.0065
        13.6740,   4.6766,   0.1450,   1.0019,  -0.0046
        13.6775,   4.6712,   0.1667,   0.9961,   0.0036
        13.6810,   4.6846,   0.1526,   0.9986,  -0.0012
        13.6845,   4.6582,   0.1617,   0.9947,   0.0060
        13.6880,   4.6910,   0.1513,   1.0078,   0.0000
        13.6915,   4.6748,   0.1555,   0.9960,   0.0028
        13.6950,   4.6679,   0.1458,   1.0006,  -0.0112
        13.6985,   4.6759,   0.1663,   0.9991,   0.0026
        13.7020,   4.6750,   0.1615,   1.0006,   0.0053
        13.7055,   4.6738,   0.1667,   0.9989,   0.0040
        13.7090,   4.6792,   0.1541,   1.0002,  -0.0063
        13.7125,   4.6800,   0.1537,   0.9942,   0.0020
        13.7160,   4.6767,   0.1643,   0.9933,  -0.0027
        13.7195,   4.6632,   0.1540,   0.9945,  -0.0070
        13.7230,   4.6763,   0.1603,   0.9973,  -0.0022
        13.7265,   4.6746,   0.1478,   1.0044,  -0.0037
        13.7300,   4.6789,   0.1501,   0.9972,  -0.0037
        13.7335,   4.6809,   0.1608,   0.9977,  -0.0032
        13.7370,   4.6724,   0.1488,   1.0054,   0.0066
        13.7405,   4.6761,   0.1561,   1.0069,  -0.0032
        13.7440,   4.6719,   0.1531,   0.9939,   0.0059
        13.7475,   4.6802,   0.1521,   0.9986,   0.0025
        13.7510,   4.6815,   0.1632,   1.0010,   0.0034
        13.7545,   4.6715,   0.1673,   0.9979,   0.0060
        13.7580,   4.6775,   0.1419,   0.9937,  -0.0065
        13.7615,   4.6685,   0.1537,   0.9993,   0.0021
        13.7650,   4.6763,   0.1557,   1.0041,  -0.0024
        13.7685,   4.6670,   0.1521,   0.9950,  -0.0036
        13.7720,   4.6891,   0.1556,   1.0082,  -0.0028
        13.7755,   4.6700,   0.1623,   0.9961,  -0.0008
        13.7790,   4.6706,   0.1641,   0.9951,   0.0017
        13.7825,   4.6772,   0.1620,   0.9989,  -0.0062
        13.7860,   4.6834,   0.1712,   0.9992,   0.0026
        13.7895,   4.6662,   0.1663,   0.9953,   0.0040
        13.7930,   4.6793,   0.1595,   0.9954,  -0.0045
        13.7965,   4.6792,   0.1488,   1.0042,   0.0014
        13.8000,   4.6815,   0.1572,   0.9936,  -0.0015
        13.8035,   4.6798,   0.1519,   1.0015,  -0.0045
        13.8070,   4.6857,   0.1692,   0.9928,  -0.0025
        13.8105,   4.6647,   0.1573,   0.9984,   0.0048
        13.8140,   4.6829,   0.1505,   0.9953,   0.0029
        13.8175,   4.6795,   0.1613,   1.0039,   0.0050
        13.8210,   4.6764,   0.1520,   0.9950,  -0.0020
        13.8245,   4.6827,   0.1557,   0.9900,   0.0002
        13.8280,   4.6684,   0.1555,   0.9965,   0.0105
        13.8315,   4.6770,   0.1508,   0.9893,   0.0020
        13.8350,   4.6713,   0.1686,   1.0081,   0.0027
        13.8385,   4.6731,   0.1604,   0.9956,  -0.0037
        13.8420,   4.6641,   0.1509,   0.9915,   0.0015
        13.8455,   4.6664,   0.1464,   0.9970,  -0.0069
        13.8490,   4.6731,   0.1567,   1.0023,  -0.0052
        13.8525,   4.6692,   0.1626,   0.9949,  -0.0002
        13.8560,   4.6620,   0.1488,   0.9944,  -0.0047
        13.8595,   4.7017,   0.1714,   1.0042,  -0.0035
        13.8630,   4.6792,   0.1578,   0.9921,  -0.0040
        13.8665,   4.6634,   0.1517,   0.9984,  -0.0035
        13.8700,   4.6637,   0.1554,   0.9981,  -0.0010
        13.8735,   4.6801,   0.1673,   1.0034,  -0.0006
        13.8770,   4.6576,   0.1745,   0.9987,  -0.0009
        13.8805,   4.6718,   0.1644,   1.0018,   0.0055
        13.8840,   4.6557,   0.1724,   0.9954,  -0.0000
        13.8875,   4.6777,   0.1663,   1.0037,  -0.0022
        13.8910,   4.6816,   0.1610,   0.9977,  -0.0025
        13.8945,   4.6651,   0.1776,   0.9931,  -0.0036
        13.8980,   4.6753,   0.1498,   0.9975,  -0.0033
        13.9015,   4.6704,   0.1665,   1.0051,  -0.0058
        13.9050,   4.6843,   0.1515,   0.9885,   0.0029
        13.9085,   4.6734,   0.1627,   0.9994,   0.0016
        13.9120,   4.6703,   0.1583,   1.0047,  -0.0022
        13.9155,   4.6732,   0.1619,   0.9987,  -0.0047
        13.9190,   4.6758,   0.1562,   0.9909,  -0.0010
        13.9225,   4.6604,   0.1603,   0.9973,   0.0018
        13.9260,   4.6676,   0.1518,   0.9979,  -0.0019
        13.9295,   4.6726,   0.1471,   0.9917,  -0.0079
        13.9330,   4.6578,   0.1591,   0.9966,   0.0086
        13.9365,   4.6784,   0.1692,   0.9984,   0.0019
        13.9400,   4.6853,   0.1558,   0.9982,  -0.0051
        13.9435,   4.6682,   0.1562,   0.9941,  -0.0006
        13.9470,   4.6802,   0.1756,   1.0062,   0.0004
        13.9505,   4.6609,   0.1551,   0.9932,   0.0002
        13.9540,   4.6718,   0.1666,   0.9942,   0.0076
        13.9575,   4.6625,   0.1518,   0.9974,  -0.0034
        13.9610,   4.6729,   0.1617,   0.9952,   0.0039
        13.9645,   4.6695,   0.1636,   1.0018,   0.0025
        13.9680,   4.6734,   0.1509,   0.9957,   0.0010
        13.9715,   4.6635,   0.1550,   0.9999,  -0.0027
        13.9750,   4.6699,   0.1648,   1.0047,   0.0016
        13.9785,   4.6757,   0.1662,   0.9964,   0.0002
        13.9820,   4.6691,   0.1620,   1.0012,   0.0056
        13.9855,   4.6689,   0.1590,   0.9973,   0.0003
        13.9890,   4.6625,   0.1655,   1.0062,  -0.0001
        13.9925,   4.6671,   0.1620,   0.9980,   0.0010
        13.9960,   4.6653,   0.1600,   0.9970,   0.0068
        13.9995,   4.6561,   0.1677,   0.9990,   0.0080
        14.0030,   4.6548,   0.1576,   1.0041,  -0.0032
        14.0065,   4.6573,   0.1728,   1.0031,  -0.0000
        14.0100,   4.6576,   0.1523,   0.9926,   0.0045
        14.0135,   4.6543,   0.1680,   0.9944,   0.0052
        14.0170,   4.6656,   0.1664,   1.0014,  -0.0051
        14.0205,   4.6627,   0.1554,   0.9958,   0.0057
        14.0240,   4.6855,   0.1830,   1.0082,   0.0001
        14.0275,   4.6804,   0.1544,   0.9975,   0.0010
        14.0310,   4.7032,   0.1593,   1.0025,  -0.0081
        14.0345,   4.6435,   0.1768,   0.9950,  -0.0022
        14.0380,   4.6871,   0.1868,   1.0035,  -0.0010
        14.0415,   4.6678,   0.1657,   0.9946,  -0.0013
        14.0450,   4.6496,   0.1538,   0.9911,  -0.0038
        14.0485,   4.6527,   0.1815,   0.9978,   0.0038
        14.0520,   4.6759,   0.1631,   1.0010,   0.0026
        14.0555,   4.6574,   0.1672,   0.9959,  -0.0001
        14.0590,   4.6804,   0.1679,   1.0046,   0.0045
        14.0625,   4.6555,   0.1610,   0.9938,  -0.0010
        14.0660,   4.6549,   0.1709,   1.0001,   0.0026
        14.0695,   4.6632,   0.1678,   1.0014,  -0.0013
        14.0730,   4.6670,   0.1578,   0.9995,   0.0020
        14.0765,   4.6632,   0.1695,   0.9998,   0.0045
        14.0800,   4.6764,   0.1619,   0.9942,   0.0052
        14.0835,   4.6660,   0.1746,   0.9970,   0.0001
        14.0870,   4.6662,   0.1637,   0.9986,   0.0044
        14.0905,   4.6648,   0.1593,   0.9973,   0.0008
        14.0940,   4.6637,   0.1592,   0.9954,   0.0020
        14.0975,   4.6604,   0.1506,   0.9996,   0.0035
        14.1010,   4.6658,   0.1672,   0.9977,   0.0053
        14.1045,   4.6556,   0.1683,   1.0018,   0.0063
        14.1080,   4.6589,   0.1650,   0.9985,   0.0073
        14.1115,   4.6708,   0.1465,   0.9970,  -0.0048
        14.1150,   4.6602,   0.1641,   0.9961,   0.0034
        14.1185,   4.6669,   0.1689,   0.9988,   0.0135
        14.1220,   4.6496,   0.1765,   0.9949,   0.0057
        14.1255,   4.6616,   0.1542,   0.9892,   0.0010
        14.1290,   4.6678,   0.1608,   1.0026,   0.0043
        14.1325,   4.6600,   0.1632,   1.0040,  -0.0002
        14.1360,   4.6620,   0.1465,   0.9997,   0.0002
        14.1395,   4.6483,   0.1664,   0.9870,   0.0067
        14.1430,   4.6716,   0.1586,   0.9988,  -0.0012
        14.1465,   4.6587,   0.1501,   0.9976,   0.0044
        14.1500,   4.6710,   0.1605,   0.9971,  -0.0005
        14.1535,   4.6577,   0.1630,   0.9949,  -0.0018
        14.1570,   4.6615,   0.1574,   0.9960,  -0.0013
        14.1605,   4.6605,   0.1692,   0.9998,   0.0022
        14.1640,   4.6554,   0.1673,   0.9999,   0.0051
        14.1675,   4.6567,   0.1654,   0.9979,   0.0063
        14.1710,   4.6586,   0.1720,   1.0022,   0.0037
        14.1745,   4.6718,   0.1603,   0.9950,  -0.0035
        14.1780,   4.6597,   0.1609,   0.9934,  -0.0027
        14.1815,   4.6624,   0.1623,   0.9984,  -0.0007
        14.1850,   4.6639,   0.1723,   1.0012,   0.0047
        14.1885,   4.6609,   0.1590,   0.9942,   0.0005
        14.1920,   4.6667,   0.1552,   1.0010,  -0.0045
        14.1955,   4.6655,   0.1447,   0.9997,  -0.0044
        14.1990,   4.6691,   0.1673,   0.9983,  -0.0001
        14.2025,   4.6646,   0.1541,   0.9991,   0.0010
        14.2060,   4.6723,   0.1740,   1.0064,  -0.0003
        14.2095,   4.6528,   0.1590,   0.9926,  -0.0004
        14.2130,   4.6625,   0.1484,   1.0000,  -0.0013
        14.2165,   4.6483,   0.1562,   0.9950,   0.0053
        14.2200,   4.6643,   0.1576,   0.9966,   0.0042
        14.2235,   4.6461,   0.1535,   0.9955,  -0.0006
        14.2270,   4.6576,   0.1470,   0.9950,   0.0015
        14.2305,   4.6593,   0.1486,   0.9990,  -0.0054
        14.2340,   4.6635,   0.1612,   0.9982,   0.0116
        14.2375,   4.6578,   0.1503,   0.9980,   0.0014
        14.2410,   4.6542,   0.1551,   0.9940,  -0.0047
        14.2445,   4.6632,   0.1535,   0.9976,  -0.0033
        14.2480,   4.6594,   0.1507,   0.9969,  -0.0038
        14.2515,   4.6622,   0.1517,   0.9945,  -0.0021
        14.2550,   4.6640,   0.1498,   0.9955,  -0.0020
        14.2585,   4.6630,   0.1546,   0.9998,  -0.0040
        14.2620,   4.6590,   0.1516,   0.9947,  -0.0010
        14.2655,   4.6636,   0.1527,   0.9946,  -0.0049
        14.2690,   4.6560,   0.1525,   0.9952,   0.0033
        14.2725,   4.6586,   0.1680,   0.9993,   0.0039
        14.2760,   4.6712,   0.1592,   1.0026,   0.0008
        14.2795,   4.6687,   0.1584,   0.9943,   0.0027
        14.2830,   4.6449,   0.1500,   0.9888,  -0.0001
        14.2865,   4.6637,   0.1478,   0.9947,  -0.0036
        14.2900,   4.6597,   0.1433,   0.9963,  -0.0026
        14.2935,   4.6602,   0.1495,   0.9968,  -0.0053
        14.2970,   4.6538,   0.1540,   0.9977,   0.0003
        14.3005,   4.6478,   0.1621,   0.9907,   0.0012
        14.3040,   4.6530,   0.1666,   0.9926,   0.0017
        14.3075,   4.6480,   0.1492,   0.9906,  -0.0077
        14.3110,   4.6649,   0.1679,   1.0010,   0.0124
        14.3145,   4.6533,   0.1580,   0.9911,  -0.0014
        14.3180,   4.6573,   0.1449,   0.9985,  -0.0034
        14.3215,   4.6715,   0.1603,   1.0027,   0.0044
        14.3250,   4.6582,   0.1571,   0.9961,   0.0063
        14.3285,   4.6527,   0.1611,   0.9965,   0.0023
        14.3320,   4.6625,   0.1570,   1.0005,  -0.0026
        14.3355,   4.6578,   0.1586,   0.9927,   0.0056
        14.3390,   4.6646,   0.1526,   0.9959,   0.0012
        14.3425,   4.6575,   0.1512,   0.9978,  -0.0034
        14.3460,   4.6585,   0.1587,   0.9972,   0.0019
        14.3495,   4.6647,   0.1474,   0.9992,  -0.0047
        14.3530,   4.6573,   0.1573,   0.9955,   0.0023
        14.3565,   4.6652,   0.1606,   1.0016,   0.0055
        14.3600,   4.6648,   0.1562,   0.9980,   0.0027
        14.3635,   4.6637,   0.1484,   0.9980,   0.0000
        14.3670,   4.6614,   0.1530,   0.9975,  -0.0034
        14.3705,   4.6630,   0.1530,   1.0011,   0.0014
        14.3740,   4.6652,   0.1492,   0.9956,   0.0004
        14.3775,   4.6677,   0.1614,   1.0016,   0.0063
        14.3810,   4.6604,   0.1542,   0.9980,   0.0023
        14.3845,   4.6669,   0.1530,   0.9996,   0.0003
        14.3880,   4.6555,   0.1555,   0.9929,   0.0027
        14.3915,   4.6617,   0.1637,   0.9979,   0.0066
        14.3950,   4.6546,   0.1565,   0.9943,   0.0011
        14.3985,   4.6583,   0.1532,   0.9972,  -0.0004
        14.4020,   4.6558,   0.1496,   0.9954,  -0.0004
        14.4055,   4.6556,   0.1570,   0.9943,   0.0012
        14.4090,   4.6666,   0.1547,   1.0003,   0.0008
        14.4125,   4.6589,   0.1500,   0.9935,  -0.0045
        14.4160,   4.6551,   0.1511,   0.9933,  -0.0041
        14.4195,   4.6542,   0.1658,   0.9925,   0.0038
        14.4230,   4.6598,   0.1517,   0.9939,  -0.0043
        14.4265,   4.6561,   0.1535,   0.9931,  -0.0002
        14.4300,   4.6559,   0.1574,   0.9955,  -0.0040
        14.4335,   4.6564,   0.1593,   0.9948,   0.0015
        14.4370,   4.6629,   0.1627,   0.9997,   0.0027
        14.4405,   4.6608,   0.1652,   0.9987,   0.0017
        14.4440,   4.6541,   0.1570,   0.9944,   0.0001
        14.4475,   4.6542,   0.1631,   0.9965,  -0.0005
        14.4510,   4.6593,   0.1595,   0.9990,  -0.0001
        14.4545,   4.6460,   0.1640,   0.9938,   0.0014
        14.4580,   4.6628,   0.1566,   0.9973,   0.0015
        14.4615,   4.6507,   0.1649,   0.9938,   0.0059
        14.4650,   4.6608,   0.1504,   0.9974,  -0.0053
        14.4685,   4.6731,   0.1544,   1.0023,  -0.0026
        14.4720,   4.6651,   0.1464,   0.9945,  -0.0049
        14.4755,   4.6665,   0.1625,   1.0012,   0.0075
        14.4790,   4.6607,   0.1666,   0.9996,   0.0093
        14.4825,   4.6523,   0.1487,   0.9922,  -0.0033
        14.4860,   4.6596,   0.1723,   0.9971,   0.0085
        14.4895,   4.6697,   0.1629,   1.0029,   0.0019
        14.4930,   4.6559,   0.1455,   0.9951,  -0.0019
        14.4965,   4.6678,   0.1535,   0.9994,   0.0004
        14.5000,   4.6700,   0.1660,   1.0005,   0.0009
        14.5035,   4.6615,   0.1477,   0.9972,  -0.0056
        14.5070,   4.6611,   0.1523,   0.9943,   0.0017
        14.5105,   4.6622,   0.1555,   0.9967,  -0.0003
        14.5140,   4.6616,   0.1603,   0.9986,   0.0047
        14.5175,   4.6546,   0.1602,   0.9942,   0.0017
        14.5210,   4.6601,   0.1577,   0.9972,  -0.0008
        14.5245,   4.6648,   0.1617,   0.9979,   0.0006
        14.5280,   4.6626,   0.1472,   0.9993,  -0.0012
        14.5315,   4.6675,   0.1494,   0.9999,  -0.0002
        14.5350,   4.6608,   0.1480,   0.9969,  -0.0011
        14.5385,   4.6578,   0.1552,   0.9962,  -0.0015
        14.5420,   4.6578,   0.1590,   0.9996,   0.0005
        14.5455,   4.6678,   0.1558,   1.0035,   0.0003
        14.5490,   4.6528,   0.1625,   0.9934,   0.0036
        14.5525,   4.6612,   0.1506,   0.9964,  -0.0039
        14.5560,   4.6532,   0.1504,   0.9940,  -0.0030
        14.5595,   4.6561,   0.1636,   0.9963,   0.0014
        14.5630,   4.6437,   0.1544,   0.9888,  -0.0004
        14.5665,   4.6622,   0.1628,   0.9975,   0.0012
        14.5700,   4.6712,   0.1526,   1.0002,  -0.0025
        14.5735,   4.6677,   0.1569,   0.9995,  -0.0026
        14.5770,   4.6648,   0.1750,   1.0024,   0.0033
        14.5805,   4.6682,   0.1552,   1.0010,  -0.0033
        14.5840,   4.6595,   0.1611,   0.9968,   0.0001
        14.5875,   4.6550,   0.1594,   0.9988,  -0.0005
        14.5910,   4.6646,   0.1551,   0.9981,  -0.0021
        14.5945,   4.6651,   0.1595,   1.0007,  -0.0003
        14.5980,   4.6695,   0.1558,   0.9989,  -0.0033
        14.6015,   4.6697,   0.1635,   1.0001,   0.0014
        14.6050,   4.6648,   0.1562,   1.0000,   0.0001
        14.6085,   4.6670,   0.1613,   0.9966,   0.0000
        14.6120,   4.6694,   0.1559,   1.0028,  -0.0030
        14.6155,   4.6560,   0.1556,   0.9954,   0.0012
        14.6190,   4.6651,   0.1609,   1.0018,   0.0009
        14.6225,   4.6585,   0.1457,   0.9971,  -0.0044
        14.6260,   4.6527,   0.1745,   0.9918,   0.0087
        14.6295,   4.6498,   0.1645,   0.9928,   0.0038
        14.6330,   4.6492,   0.1570,   0.9997,  -0.0006
        14.6365,   4.6572,   0.1427,   0.9967,  -0.0060
        14.6400,   4.6678,   0.1539,   0.9945,  -0.0023
        14.6435,   4.6633,   0.1612,   1.0010,   0.0023
        14.6470,   4.6591,   0.1639,   0.9981,   0.0022
        14.6505,   4.6491,   0.1383,   1.0024,  -0.0106
        14.6540,   4.6690,   0.1709,   0.9991,   0.0044
        14.6575,   4.6716,   0.1549,   1.0059,  -0.0023
        14.6610,   4.6599,   0.1609,   0.9941,   0.0004
        14.6645,   4.6471,   0.1598,   0.9875,   0.0004
        14.6680,   4.6456,   0.1598,   0.9894,  -0.0032
        14.6715,   4.6543,   0.1531,   0.9989,  -0.0030
        14.6750,   4.6619,   0.1487,   1.0003,   0.0043
        14.6785,   4.6546,   0.1441,   1.0026,  -0.0037
        14.6820,   4.6554,   0.1597,   0.9942,   0.0008
        14.6855,   4.6516,   0.1540,   0.9978,  -0.0018
        14.6890,   4.6702,   0.1492,   0.9961,   0.0013
        14.6925,   4.6568,   0.1679,   1.0011,   0.0020
        14.6960,   4.6447,   0.1503,   0.9976,   0.0029
        14.6995,   4.6614,   0.1559,   0.9979,  -0.0003
        14.7030,   4.6612,   0.1498,   0.9938,  -0.0044
        14.7065,   4.6660,   0.1505,   0.9996,  -0.0026
        14.7100,   4.6820,   0.1543,   0.9982,  -0.0024
        14.7135,   4.6505,   0.1618,   0.9947,   0.0044
        14.7170,   4.6462,   0.1329,   0.9964,  -0.0019
        14.7205,   4.6821,   0.1427,   0.9977,  -0.0039
        14.7240,   4.6465,   0.1543,   0.9935,   0.0048
        14.7275,   4.6588,   0.1424,   1.0046,  -0.0072
        14.7310,   4.6673,   0.1522,   0.9994,  -0.0039
        14.7345,   4.6523,   0.1551,   0.9927,  -0.0021
        14.7380,   4.6589,   0.1500,   1.0028,  -0.0036
        14.7415,   4.6476,   0.1538,   0.9979,  -0.0072
        14.7450,   4.6638,   0.1469,   0.9975,  -0.0021
        14.7485,   4.6622,   0.1495,   1.0007,  -0.0014
        14.7520,   4.6505,   0.1553,   0.9905,   0.0006
        14.7555,   4.6764,   0.1650,   1.0025,  -0.0002
        14.7590,   4.6651,   0.1549,   0.9988,  -0.0003
        14.7625,   4.6647,   0.1381,   0.9930,   0.0022
        14.7660,   4.6635,   0.1642,   1.0031,   0.0013
        14.7695,   4.6585,   0.1434,   1.0008,   0.0014
        14.7730,   4.6580,   0.1479,   0.9901,   0.0065
        14.7765,   4.6561,   0.1502,   0.9997,   0.0025
        14.7800,   4.6577,   0.1490,   1.0002,  -0.0022
        14.7835,   4.6650,   0.1617,   0.9958,   0.0068
        14.7870,   4.6572,   0.1459,   0.9952,   0.0030
        14.7905,   4.6519,   0.1535,   0.9933,   0.0027
        14.7940,   4.6595,   0.1464,   0.9949,   0.0069
        14.7975,   4.6696,   0.1681,   0.9994,   0.0064
        14.8010,   4.6595,   0.1461,   0.9943,   0.0047
        14.8045,   4.6604,   0.1565,   0.9980,   0.0042
        14.8080,   4.6506,   0.1560,   0.9984,  -0.0022
        14.8115,   4.6688,   0.1613,   0.9989,   0.0029
        14.8150,   4.6604,   0.1606,   0.9990,  -0.0007
        14.8185,   4.6579,   0.1551,   0.9900,   0.0034
        14.8220,   4.6598,   0.1585,   0.9955,   0.0035
        14.8255,   4.6382,   0.1503,   0.9977,  -0.0143
        14.8290,   4.6596,   0.1587,   0.9984,   0.0029
        14.8325,   4.6581,   0.1594,   0.9990,  -0.0010
        14.8360,   4.6670,   0.1523,   0.9948,   0.0055
        14.8395,   4.6657,   0.1654,   0.9953,   0.0022
        14.8430,   4.6629,   0.1561,   0.9967,  -0.0051
        14.8465,   4.6604,   0.1579,   1.0030,   0.0040
        14.8500,   4.6648,   0.1582,   0.9981,  -0.0025
        14.8535,   4.6454,   0.1656,   1.0010,   0.0010
        14.8570,   4.6525,   0.1566,   1.0011,  -0.0030
        14.8605,   4.6541,   0.1671,   0.9977,  -0.0011
        14.8640,   4.6543,   0.1624,   0.9973,   0.0005
        14.8675,   4.6551,   0.1497,   0.9917,   0.0009
        14.8710,   4.6515,   0.1514,   0.9929,  -0.0030
        14.8745,   4.6351,   0.1518,   0.9965,   0.0052
        14.8780,   4.6551,   0.1474,   1.0032,   0.0067
        14.8815,   4.6772,   0.1515,   1.0009,  -0.0059
        14.8850,   4.6587,   0.1531,   0.9961,   0.0010
        14.8885,   4.6589,   0.1415,   0.9983,   0.0019
        14.8920,   4.6516,   0.1611,   1.0017,   0.0034
        14.8955,   4.6570,   0.1602,   0.9965,   0.0004
        14.8990,   4.6463,   0.1552,   0.9936,  -0.0005
        14.9025,   4.6701,   0.1643,   1.0010,   0.0016
        14.9060,   4.6432,   0.1565,   0.9977,   0.0008
        14.9095,   4.6787,   0.1659,   0.9965,   0.0010
        14.9130,   4.6578,   0.1390,   0.9986,  -0.0006
        14.9165,   4.6655,   0.1651,   0.9950,  -0.0028
        14.9200,   4.6572,   0.1465,   0.9960,  -0.0076
        14.9235,   4.6607,   0.1531,   1.0024,  -0.0001
        14.9270,   4.6546,   0.1630,   1.0020,  -0.0047
        14.9305,   4.6740,   0.1614,   0.9945,   0.0036
        14.9340,   4.6623,   0.1582,   0.9945,   0.0013
        14.9375,   4.6629,   0.1546,   0.9928,   0.0020
        14.9410,   4.6531,   0.1607,   0.9984,   0.0042
        14.9445,   4.6591,   0.1619,   1.0033,  -0.0023
        14.9480,   4.6619,   0.1623,   0.9998,  -0.0010
        14.9515,   4.6676,   0.1696,   1.0049,  -0.0018
        14.9550,   4.6500,   0.1458,   0.9962,  -0.0032
        14.9585,   4.6736,   0.1711,   1.0033,   0.0018
        14.9620,   4.6650,   0.1528,   0.9982,  -0.0036
        14.9655,   4.6562,   0.1554,   0.9965,   0.0029
        14.9690,   4.6749,   0.1376,   1.0022,  -0.0030
        14.9725,   4.6640,   0.1607,   0.9983,  -0.0013
        14.9760,   4.6669,   0.1731,   0.9928,  -0.0024
        14.9795,   4.6668,   0.1397,   0.9982,  -0.0093
        14.9830,   4.6436,   0.1729,   0.9946,   0.0005
        14.9865,   4.6394,   0.1351,   0.9980,  -0.0105
        14.9900,   4.6653,   0.1637,   1.0090,  -0.0029
        14.9935,   4.6531,   0.1753,   0.9923,  -0.0012
        14.9970,   4.6628,   0.1753,   0.9889,  -0.0042
        15.0005,   4.6489,   0.1733,   1.0027,  -0.0053
        15.0040,   4.6671,   0.1378,   1.0124,  -0.0083
        15.0075,   4.6463,   0.1594,   1.0010,  -0.0054
        15.0110,   4.6633,   0.1504,   0.9945,  -0.0026
        15.0145,   4.6537,   0.1544,   0.9968,   0.0012
        15.0180,   4.6521,   0.1560,   0.9972,  -0.0069
        15.0215,   4.6510,   0.1594,   1.0033,  -0.0026
        15.0250,   4.6563,   0.1510,   0.9986,  -0.0003
        15.0285,   4.6669,   0.1568,   0.9933,  -0.0057
        15.0320,   4.6525,   0.1554,   0.9962,   0.0011
        15.0355,   4.6539,   0.1574,   0.9926,   0.0032
        15.0390,   4.6704,   0.1801,   1.0048,  -0.0057
        15.0425,   4.6455,   0.1609,   0.9983,   0.0042
        15.0460,   4.6539,   0.1644,   0.9955,  -0.0014
        15.0495,   4.6293,   0.1371,   0.9970,  -0.0022
        15.0530,   4.6577,   0.1785,   1.0004,   0.0048
        15.0565,   4.6405,   0.1577,   0.9906,  -0.0040
        15.0600,   4.6724,   0.1494,   0.9970,  -0.0051
        15.0635,   4.6707,   0.1791,   0.9959,   0.0024
        15.0670,   4.6571,   0.1555,   0.9995,   0.0008
        15.0705,   4.6645,   0.1577,   1.0010,   0.0024
        15.0740,   4.6726,   0.1811,   0.9965,   0.0002
        15.0775,   4.6579,   0.1457,   0.9965,  -0.0037
        15.0810,   4.6818,   0.1531,   1.0076,   0.0001
        15.0845,   4.6603,   0.1417,   0.9964,  -0.0052
        15.0880,   4.6758,   0.1668,   0.9912,   0.0041
        15.0915,   4.6536,   0.1613,   0.9929,  -0.0068
        15.0950,   4.6596,   0.1533,   0.9954,  -0.0001
        15.0985,   4.6521,   0.1680,   0.9951,  -0.0026
        15.1020,   4.6589,   0.1660,   0.9977,  -0.0025
        15.1055,   4.6565,   0.1636,   0.9991,  -0.0079
        15.1090,   4.6585,   0.1611,   1.0008,  -0.0036
        15.1125,   4.6622,   0.1570,   0.9965,   0.0016
        15.1160,   4.6697,   0.1659,   0.9999,  -0.0022
        15.1195,   4.6573,   0.1611,   0.9943,   0.0008
        15.1230,   4.6467,   0.1658,   0.9981,   0.0009
        15.1265,   4.6659,   0.1497,   0.9921,  -0.0054
        15.1300,   4.6569,   0.1458,   0.9946,   0.0051
        15.1335,   4.6584,   0.1538,   0.9973,  -0.0036
        15.1370,   4.6570,   0.1610,   0.9956,   0.0001
        15.1405,   4.6734,   0.1489,   0.9929,  -0.0067
        15.1440,   4.6811,   0.1634,   0.9977,  -0.0010
        15.1475,   4.6552,   0.1686,   0.9983,  -0.0024
        15.1510,   4.6596,   0.1630,   0.9956,   0.0017
        15.1545,   4.6687,   0.1643,   1.0006,  -0.0014
        15.1580,   4.6517,   0.1443,   0.9956,  -0.0062
        15.1615,   4.6645,   0.1422,   1.0004,  -0.0030
        15.1650,   4.6494,   0.1514,   0.9918,  -0.0005
        15.1685,   4.6649,   0.1670,   0.9958,   0.0018
        15.1720,   4.6598,   0.1712,   0.9976,  -0.0040
        15.1755,   4.6502,   0.1638,   1.0029,   0.0042
        15.1790,   4.6659,   0.1563,   0.9988,   0.0043
        15.1825,   4.6597,   0.1560,   0.9944,  -0.0005
        15.1860,   4.6485,   0.1657,   0.9993,  -0.0008
        15.1895,   4.6626,   0.1556,   0.9989,  -0.0070
        15.1930,   4.6563,   0.1690,   0.9992,   0.0065
        15.1965,   4.6592,   0.1613,   0.9923,   0.0029
        15.2000,   4.6626,   0.1587,   1.0013,  -0.0044
        15.2035,   4.6549,   0.1586,   0.9993,  -0.0003
        15.2070,   4.6636,   0.1656,   0.9993,  -0.0009
        15.2105,   4.6556,   0.1714,   1.0007,  -0.0018
        15.2140,   4.6555,   0.1434,   0.9937,  -0.0019
        15.2175,   4.6667,   0.1564,   1.0004,  -0.0071
        15.2210,   4.6662,   0.1420,   0.9969,  -0.0058
        15.2245,   4.6496,   0.1659,   0.9996,   0.0007
        15.2280,   4.6522,   0.1508,   1.0010,  -0.0025
        15.2315,   4.6617,   0.1758,   0.9969,   0.0010
        15.2350,   4.6637,   0.1510,   0.9995,  -0.0024
        15.2385,   4.6697,   0.1626,   1.0016,   0.0010
        15.2420,   4.6566,   0.1381,   0.9968,  -0.0052
        15.2455,   4.6598,   0.1705,   0.9976,   0.0036
        15.2490,   4.6579,   0.1573,   0.9970,   0.0054
        15.2525,   4.6789,   0.1614,   1.0073,  -0.0022
        15.2560,   4.6598,   0.1607,   0.9988,   0.0038
        15.2595,   4.6658,   0.1747,   0.9959,   0.0073
        15.2630,   4.6733,   0.1566,   0.9992,   0.0009
        15.2665,   4.6675,   0.1444,   0.9996,  -0.0010
        15.2700,   4.6531,   0.1474,   0.9923,  -0.0017
        15.2735,   4.6545,   0.1612,   0.9908,   0.0012
        15.2770,   4.6585,   0.1581,   0.9956,   0.0004
        15.2805,   4.6646,   0.1610,   0.9977,   0.0013
        15.2840,   4.6563,   0.1578,   0.9938,   0.0030
        15.2875,   4.6592,   0.1633,   0.9931,   0.0042
        15.2910,   4.6666,   0.1576,   1.0013,  -0.0007
        15.2945,   4.6669,   0.1650,   0.9983,   0.0051
        15.2980,   4.6558,   0.1591,   0.9930,  -0.0010
        15.3015,   4.6635,   0.1600,   0.9963,   0.0021
        15.3050,   4.6623,   0.1711,   0.9963,   0.0030
        15.3085,   4.6689,   0.1628,   0.9997,   0.0008
        15.3120,   4.6605,   0.1673,   0.9950,   0.0030
        15.3155,   4.6492,   0.1593,   0.9914,  -0.0007
        15.3190,   4.6615,   0.1508,   0.9956,  -0.0075
        15.3225,   4.6600,   0.1725,   0.9945,   0.0053
        15.3260,   4.6643,   0.1636,   0.9995,   0.0002
        15.3295,   4.6406,   0.1655,   0.9911,   0.0015
        15.3330,   4.6416,   0.1645,   0.9893,  -0.0004
        15.3365,   4.6563,   0.1586,   0.9966,  -0.0042
        15.3400,   4.6539,   0.1898,   0.9953,   0.0072
        15.3435,   4.6560,   0.1749,   0.9959,   0.0049
        15.3470,   4.6553,   0.1708,   0.9958,   0.0034
        15.3505,   4.6567,   0.1779,   0.9979,   0.0008
        15.3540,   4.6610,   0.1802,   1.0002,   0.0009
        15.3575,   4.6697,   0.1576,   1.0023,  -0.0049
        15.3610,   4.6560,   0.1512,   0.9981,  -0.0053
        15.3645,   4.6570,   0.1664,   0.9951,  -0.0019
        15.3680,   4.6577,   0.1736,   0.9967,   0.0040
        15.3715,   4.6520,   0.1613,   0.9934,   0.0011
        15.3750,   4.6591,   0.1603,   0.9969,  -0.0014
        15.3785,   4.6616,   0.1658,   0.9986,  -0.0007
        15.3820,   4.6633,   0.1642,   0.9962,  -0.0017
        15.3855,   4.6632,   0.1649,   0.9990,  -0.0025
        15.3890,   4.6502,   0.1602,   0.9921,  -0.0012
        15.3925,   4.6511,   0.1577,   0.9946,  -0.0012
        15.3960,   4.6556,   0.1694,   0.9960,   0.0026
        15.3995,   4.6659,   0.1670,   0.9988,   0.0006
        15.4030,   4.6588,   0.1599,   0.9938,  -0.0015
        15.4065,   4.6640,   0.1501,   0.9956,  -0.0082
        15.4100,   4.6552,   0.1642,   0.9936,  -0.0020
        15.4135,   4.6577,   0.1595,   0.9967,  -0.0045
        15.4170,   4.6588,   0.1595,   0.9975,  -0.0050
        15.4205,   4.6638,   0.1731,   0.9990,   0.0022
        15.4240,   4.6440,   0.1921,   0.9930,   0.0114
        15.4275,   4.6438,   0.1614,   0.9902,  -0.0019
        15.4310,   4.6522,   0.1729,   0.9930,   0.0009
        15.4345,   4.6571,   0.1590,   0.9959,  -0.0038
        15.4380,   4.6508,   0.1733,   0.9933,   0.0022
        15.4415,   4.6442,   0.1678,   0.9941,  -0.0008
        15.4450,   4.6605,   0.1660,   1.0011,  -0.0014
        15.4485,   4.6556,   0.1660,   0.9978,  -0.0025
        15.4520,   4.6474,   0.1748,   0.9955,   0.0013
        15.4555,   4.6493,   0.1631,   0.9964,  -0.0048
        15.4590,   4.6500,   0.1663,   0.9981,  -0.0042
        15.4625,   4.6552,   0.1728,   0.9967,   0.0018
        15.4660,   4.6525,   0.1721,   0.9980,  -0.0010
        15.4695,   4.6560,   0.1737,   0.9989,  -0.0007
        15.4730,   4.6562,   0.1650,   0.9985,  -0.0057
        15.4765,   4.6559,   0.1694,   0.9982,  -0.0019
        15.4800,   4.6543,   0.1667,   0.9995,  -0.0018
        15.4835,   4.6475,   0.1815,   0.9986,   0.0052
        15.4870,   4.6419,   0.1793,   0.9970,   0.0057
        15.4905,   4.6540,   0.1810,   0.9966,   0.0035
        15.4940,   4.6297,   0.1767,   0.9928,   0.0042
        15.4975,   4.6294,   0.1795,   0.9892,   0.0053
        15.5010,   4.6471,   0.1774,   0.9971,   0.0032
        15.5045,   4.6479,   0.1616,   0.9956,  -0.0020
        15.5080,   4.6578,   0.1631,   1.0016,  -0.0045
        15.5115,   4.6561,   0.1897,   1.0033,   0.0092
        15.5150,   4.6354,   0.1658,   0.9915,  -0.0019
        15.5185,   4.6513,   0.1724,   0.9998,   0.0019
        15.5220,   4.6428,   0.1729,   0.9961,   0.0006
        15.5255,   4.6529,   0.1698,   1.0002,  -0.0003
        15.5290,   4.6467,   0.1809,   0.9987,   0.0048
        15.5325,   4.6524,   0.1575,   0.9957,  -0.0048
        15.5360,   4.6535,   0.1617,   0.9990,  -0.0010
        15.5395,   4.6393,   0.1761,   0.9972,   0.0042
        15.5430,   4.6492,   0.1617,   0.9972,  -0.0027
        15.5465,   4.6497,   0.1686,   0.9979,  -0.0014
        15.5500,   4.6504,   0.1671,   0.9985,   0.0006
        15.5535,   4.6435,   0.1716,   0.9985,   0.0011
        15.5570,   4.6522,   0.1695,   0.9992,   0.0022
        15.5605,   4.6511,   0.1662,   0.9982,  -0.0002
        15.5640,   4.6501,   0.1681,   0.9969,  -0.0019
        15.5675,   4.6501,   0.1756,   1.0011,   0.0009
        15.5710,   4.6476,   0.1625,   1.0001,  -0.0007
        15.5745,   4.6336,   0.1695,   0.9942,  -0.0029
        15.5780,   4.6461,   0.1734,   0.9949,  -0.0024
        15.5815,   4.6425,   0.1546,   1.0004,  -0.0060
        15.5850,   4.6415,   0.1761,   0.9974,   0.0011
        15.5885,   4.6350,   0.1749,   0.9953,  -0.0009
        15.5920,   4.6669,   0.1641,   1.0030,  -0.0042
        15.5955,   4.6338,   0.1505,   0.9962,  -0.0078
        15.5990,   4.6537,   0.1782,   1.0007,   0.0022
        15.6025,   4.6556,   0.1639,   0.9999,   0.0015
        15.6060,   4.6433,   0.1714,   1.0006,   0.0029
        15.6095,   4.6467,   0.1599,   1.0003,  -0.0030
        15.6130,   4.6407,   0.1795,   1.0003,   0.0017
        15.6165,   4.6471,   0.1913,   1.0003,   0.0069
        15.6200,   4.6526,   0.1667,   1.0030,   0.0008
        15.6235,   4.6454,   0.1635,   0.9982,  -0.0030
        15.6270,   4.6420,   0.1781,   0.9979,  -0.0004
        15.6305,   4.6471,   0.1646,   0.9994,   0.0003
        15.6340,   4.6394,   0.1675,   0.9996,  -0.0024
        15.6375,   4.6384,   0.1700,   0.9992,   0.0025
        15.6410,   4.6504,   0.1678,   0.9985,  -0.0008
        15.6445,   4.6417,   0.1612,   1.0017,  -0.0015
        15.6480,   4.6355,   0.1518,   0.9999,   0.0014
        15.6515,   4.6400,   0.1539,   0.9973,  -0.0060
        15.6550,   4.6261,   0.1638,   0.9962,  -0.0001
        15.6585,   4.6484,   0.1718,   1.0001,   0.0034
        15.6620,   4.6533,   0.1669,   1.0047,   0.0047
        15.6655,   4.6441,   0.1679,   1.0044,   0.0028
        15.6690,   4.6405,   0.1515,   1.0024,  -0.0018
        15.6725,   4.6470,   0.1398,   0.9992,  -0.0041
        15.6760,   4.6433,   0.1659,   1.0002,   0.0021
        15.6795,   4.6312,   0.1569,   0.9971,  -0.0007
        15.6830,   4.6380,   0.1792,   0.9940,   0.0052
        15.6865,   4.6277,   0.1578,   0.9878,   0.0028
        15.6900,   4.6423,   0.1560,   1.0019,  -0.0045
        15.6935,   4.6423,   0.1614,   0.9987,   0.0048
        15.6970,   4.6393,   0.1471,   0.9979,   0.0007
        15.7005,   4.6409,   0.1635,   1.0002,   0.0059
        15.7040,   4.6368,   0.1651,   1.0024,  -0.0019
        15.7075,   4.6427,   0.1657,   1.0008,   0.0052
        15.7110,   4.6410,   0.1667,   0.9974,   0.0031
        15.7145,   4.6407,   0.1496,   0.9990,   0.0033
        15.7180,   4.6366,   0.1630,   1.0014,   0.0052
        15.7215,   4.6410,   0.1612,   0.9973,  -0.0004
        15.7250,   4.6402,   0.1605,   0.9979,  -0.0012
        15.7285,   4.6492,   0.1558,   0.9940,  -0.0050
        15.7320,   4.6400,   0.1664,   0.9997,   0.0008
        15.7355,   4.6531,   0.1664,   1.0046,  -0.0016
        15.7390,   4.6405,   0.1687,   0.9977,   0.0034
        15.7425,   4.6298,   0.1566,   0.9973,   0.0018
        15.7460,   4.6288,   0.1627,   0.9958,   0.0014
        15.7495,   4.6249,   0.1463,   1.0011,  -0.0010
        15.7530,   4.6377,   0.1673,   0.9997,  -0.0037
        15.7565,   4.6452,   0.1671,   1.0016,   0.0052
        15.7600,   4.6315,   0.1654,   0.9979,  -0.0010
        15.7635,   4.6242,   0.1611,   0.9952,   0.0049
        15.7670,   4.6214,   0.1911,   0.9946,  -0.0027
        15.7705,   4.6182,   0.1547,   0.9957,   0.0001
        15.7740,   4.6582,   0.1712,   1.0030,  -0.0012
        15.7775,   4.6235,   0.1602,   0.9900,  -0.0056
        15.7810,   4.6412,   0.1665,   0.9983,   0.0006
        15.7845,   4.6556,   0.1573,   0.9990,  -0.0042
        15.7880,   4.6193,   0.1734,   1.0049,   0.0004
        15.7915,   4.6361,   0.1556,   0.9957,  -0.0082
        15.7950,   4.6347,   0.1688,   0.9998,  -0.0013
        15.7985,   4.6425,   0.1632,   1.0028,  -0.0037
        15.8020,   4.6362,   0.1596,   0.9986,   0.0072
        15.8055,   4.6361,   0.1606,   0.9999,   0.0075
        15.8090,   4.6399,   0.1648,   1.0013,  -0.0005
        15.8125,   4.6467,   0.1609,   0.9989,  -0.0059
        15.8160,   4.6323,   0.1688,   1.0002,   0.0009
        15.8195,   4.6366,   0.1589,   0.9989,   0.0029
        15.8230,   4.6481,   0.1395,   0.9935,  -0.0042
        15.8265,   4.6533,   0.1622,   0.9980,  -0.0017
        15.8300,   4.6408,   0.1733,   0.9918,   0.0002
        15.8335,   4.6371,   0.1560,   0.9950,  -0.0008
        15.8370,   4.6259,   0.1531,   0.9986,  -0.0032
        15.8405,   4.6333,   0.1529,   0.9990,   0.0023
        15.8440,   4.6543,   0.1705,   1.0020,  -0.0006
        15.8475,   4.6435,   0.1503,   0.9957,  -0.0022
        15.8510,   4.6368,   0.1436,   1.0030,   0.0007
        15.8545,   4.6398,   0.1677,   0.9944,  -0.0029
        15.8580,   4.6331,   0.1581,   1.0010,  -0.0038
        15.8615,   4.6440,   0.1562,   1.0020,  -0.0045
        15.8650,   4.6617,   0.1578,   0.9971,  -0.0020
        15.8685,   4.6466,   0.1555,   0.9972,   0.0004
        15.8720,   4.6408,   0.1602,   1.0019,  -0.0008
        15.8755,   4.6322,   0.1782,   0.9960,  -0.0088
        15.8790,   4.6353,   0.1673,   1.0007,  -0.0075
        15.8825,   4.6373,   0.1486,   0.9999,   0.0010
        15.8860,   4.6469,   0.1542,   0.9960,  -0.0035
        15.8895,   4.6367,   0.1506,   0.9947,   0.0018
        15.8930,   4.6401,   0.1685,   0.9989,  -0.0040
        15.8965,   4.6433,   0.1490,   0.9956,  -0.0009
        15.9000,   4.6448,   0.1653,   0.9961,  -0.0005
        15.9035,   4.6254,   0.1698,   0.9996,   0.0055
        15.9070,   4.6478,   0.1561,   0.9924,   0.0013
        15.9105,   4.6496,   0.1607,   0.9994,  -0.0033
        15.9140,   4.6489,   0.1542,   1.0009,  -0.0036
        15.9175,   4.6335,   0.1486,   0.9990,   0.0027
        15.9210,   4.6526,   0.1590,   1.0023,   0.0079
        15.9245,   4.6426,   0.1602,   0.9984,   0.0014
        15.9280,   4.6337,   0.1718,   0.9969,   0.0029
        15.9315,   4.6415,   0.1692,   0.9978,  -0.0014
        15.9350,   4.6338,   0.1793,   0.9952,   0.0031
        15.9385,   4.6169,   0.1651,   0.9925,   0.0000
        15.9420,   4.6311,   0.1374,   0.9967,   0.0055
        15.9455,   4.6364,   0.1792,   0.9945,  -0.0018
        15.9490,   4.6375,   0.1717,   0.9942,  -0.0029
        15.9525,   4.6505,   0.1599,   0.9979,  -0.0005
        15.9560,   4.6433,   0.1634,   0.9948,  -0.0062
        15.9595,   4.6463,   0.1595,   0.9980,   0.0032
        15.9630,   4.6401,   0.1531,   1.0009,   0.0048
        15.9665,   4.6347,   0.1628,   1.0037,  -0.0013
        15.9700,   4.6389,   0.1571,   0.9975,   0.0067
        15.9735,   4.6460,   0.1653,   1.0030,  -0.0063
        15.9770,   4.6450,   0.1524,   0.9937,  -0.0036
        15.9805,   4.6361,   0.1553,   0.9993,  -0.0029
        15.9840,   4.6331,   0.1489,   0.9950,   0.0010
        15.9875,   4.6350,   0.1656,   0.9983,  -0.0004
        15.9910,   4.6394,   0.1440,   0.9955,   0.0023
        15.9945,   4.6503,   0.1742,   1.0012,   0.0034
        15.9980,   4.6486,   0.1752,   1.0034,   0.0033
        16.0015,   4.6593,   0.1733,   1.0036,   0.0004
        16.0050,   4.6408,   0.1568,   1.0003,   0.0014
        16.0085,   4.6461,   0.1731,   0.9989,   0.0016
        16.0120,   4.6373,   0.1893,   0.9955,   0.0014
        16.0155,   4.6603,   0.1705,   1.0008,   0.0004
        16.0190,   4.6395,   0.1661,   0.9955,  -0.0018
        16.0225,   4.6191,   0.1562,   0.9955,  -0.0013
        16.0260,   4.6406,   0.1559,   1.0023,  -0.0008
        16.0295,   4.6454,   0.1489,   1.0053,   0.0006
        16.0330,   4.6320,   0.1471,   0.9998,  -0.0077
        16.0365,   4.6355,   0.1608,   1.0010,   0.0010
        16.0400,   4.6283,   0.1547,   1.0031,  -0.0036
        16.0435,   4.6486,   0.1576,   0.9963,   0.0067
        16.0470,   4.6420,   0.1582,   0.9942,   0.0012
        16.0505,   4.6411,   0.1635,   0.9964,  -0.0011
        16.0540,   4.6416,   0.1578,   1.0002,   0.0055
        16.0575,   4.6372,   0.1625,   1.0029,   0.0020
        16.0610,   4.6392,   0.1609,   0.9981,  -0.0028
        16.0645,   4.6485,   0.1748,   0.9993,  -0.0019
        16.0680,   4.6423,   0.1527,   0.9929,  -0.0031
        16.0715,   4.6342,   0.1792,   1.0033,  -0.0015
        16.0750,   4.6462,   0.1839,   1.0052,  -0.0036
        16.0785,   4.6306,   0.1483,   0.9953,   0.0038
        16.0820,   4.6503,   0.1532,   0.9961,  -0.0018
        16.0855,   4.6610,   0.1868,   1.0044,  -0.0102
        16.0890,   4.6258,   0.1822,   1.0000,  -0.0002
        16.0925,   4.6274,   0.1739,   0.9947,   0.0038
        16.0960,   4.6418,   0.1891,   0.9995,   0.0011
        16.0995,   4.6774,   0.1811,   1.0011,  -0.0002
        16.1030,   4.6595,   0.1577,   1.0008,  -0.0058
        16.1065,   4.6499,   0.1654,   1.0015,  -0.0026
        16.1100,   4.6205,   0.1682,   0.9946,  -0.0031
        16.1135,   4.6401,   0.1672,   1.0004,   0.0053
        16.1170,   4.6342,   0.1390,   1.0016,  -0.0071
        16.1205,   4.6422,   0.1709,   0.9981,  -0.0003
        16.1240,   4.6394,   0.1729,   0.9945,  -0.0036
        16.1275,   4.6182,   0.1580,   0.9987,  -0.0068
        16.1310,   4.6317,   0.1690,   0.9995,   0.0014
        16.1345,   4.6329,   0.1619,   1.0008,  -0.0026
        16.1380,   4.6379,   0.1583,   0.9992,   0.0065
        16.1415,   4.6337,   0.1549,   0.9978,   0.0017
        16.1450,   4.6383,   0.1591,   1.0001,  -0.0006
        16.1485,   4.6295,   0.1544,   0.9997,  -0.0012
        16.1520,   4.6360,   0.1548,   0.9961,  -0.0030
        16.1555,   4.6371,   0.1675,   1.0019,   0.0009
        16.1590,   4.6443,   0.1666,   1.0026,  -0.0011
        16.1625,   4.6368,   0.1702,   1.0031,   0.0028
        16.1660,   4.6180,   0.1420,   0.9959,   0.0031
        16.1695,   4.6371,   0.1442,   0.9984,  -0.0015
        16.1730,   4.6210,   0.1365,   0.9915,  -0.0031
        16.1765,   4.6255,   0.1504,   0.9974,   0.0046
        16.1800,   4.6380,   0.1577,   0.9978,   0.0014
        16.1835,   4.6260,   0.1723,   0.9960,   0.0029
        16.1870,   4.6208,   0.1438,   0.9910,  -0.0059
        16.1905,   4.6313,   0.1767,   0.9961,   0.0064
        16.1940,   4.6423,   0.1552,   0.9964,  -0.0041
        16.1975,   4.6574,   0.1743,   0.9973,   0.0058
        16.2010,   4.6329,   0.1422,   0.9976,  -0.0071
        16.2045,   4.6534,   0.1637,   1.0003,   0.0031
        16.2080,   4.6459,   0.1661,   0.9962,   0.0068
        16.2115,   4.6320,   0.1632,   0.9974,  -0.0004
        16.2150,   4.6227,   0.1621,   0.9996,  -0.0034
        16.2185,   4.6453,   0.1637,   0.9976,   0.0019
        16.2220,   4.6459,   0.1592,   0.9961,   0.0018
        16.2255,   4.6451,   0.1548,   1.0020,  -0.0044
        16.2290,   4.6366,   0.1584,   0.9987,  -0.0065
        16.2325,   4.6323,   0.1606,   0.9966,   0.0017
        16.2360,   4.6283,   0.1678,   0.9992,   0.0013
        16.2395,   4.6405,   0.1606,   0.9998,  -0.0051
        16.2430,   4.6419,   0.1691,   1.0011,  -0.0020
        16.2465,   4.6436,   0.1522,   0.9970,  -0.0031
        16.2500,   4.6527,   0.1624,   0.9968,  -0.0057
        16.2535,   4.6137,   0.1467,   0.9955,  -0.0016
        16.2570,   4.6323,   0.1496,   0.9971,   0.0026
        16.2605,   4.6275,   0.1721,   0.9981,   0.0028
        16.2640,   4.6151,   0.1338,   0.9948,  -0.0031
        16.2675,   4.6242,   0.1581,   0.9978,   0.0037
        16.2710,   4.6398,   0.1440,   0.9951,  -0.0010
        16.2745,   4.6480,   0.1703,   1.0039,   0.0040
        16.2780,   4.6551,   0.1640,   1.0034,   0.0013
        16.2815,   4.6453,   0.1516,   1.0013,   0.0035
        16.2850,   4.6531,   0.1573,   0.9969,   0.0017
        16.2885,   4.6266,   0.1617,   0.9928,   0.0035
        16.2920,   4.6339,   0.1581,   0.9996,   0.0017
        16.2955,   4.6448,   0.1485,   0.9980,   0.0033
        16.2990,   4.6525,   0.1691,   0.9955,   0.0076
        16.3025,   4.6477,   0.1730,   0.9991,   0.0089
        16.3060,   4.6330,   0.1443,   0.9982,  -0.0058
        16.3095,   4.6418,   0.1484,   0.9974,   0.0006
        16.3130,   4.6439,   0.1549,   0.9962,   0.0045
        16.3165,   4.6381,   0.1554,   0.9954,   0.0006
        16.3200,   4.6441,   0.1470,   0.9985,  -0.0033
        16.3235,   4.6426,   0.1591,   0.9991,   0.0006
        16.3270,   4.6442,   0.1578,   1.0006,  -0.0023
        16.3305,   4.6410,   0.1596,   0.9971,  -0.0008
        16.3340,   4.6315,   0.1470,   0.9937,  -0.0014
        16.3375,   4.6394,   0.1527,   0.9979,  -0.0036
        16.3410,   4.6488,   0.1704,   0.9993,   0.0012
        16.3445,   4.6424,   0.1616,   0.9997,  -0.0021
        16.3480,   4.6467,   0.1513,   0.9987,  -0.0056
        16.3515,   4.6361,   0.1532,   0.9970,  -0.0045
        16.3550,   4.6370,   0.1556,   1.0002,   0.0000
        16.3585,   4.6428,   0.1526,   1.0001,  -0.0032
        16.3620,   4.6416,   0.1407,   1.0006,  -0.0074
        16.3655,   4.6308,   0.1730,   0.9976,   0.0026
        16.3690,   4.6338,   0.1471,   0.9997,  -0.0041
        16.3725,   4.6344,   0.1559,   1.0003,  -0.0032
        16.3760,   4.6370,   0.1520,   0.9985,  -0.0017
        16.3795,   4.6344,   0.1670,   0.9972,   0.0011
        16.3830,   4.6435,   0.1821,   0.9987,   0.0052
        16.3865,   4.6355,   0.1573,   0.9984,  -0.0002
        16.3900,   4.6322,   0.1449,   0.9997,  -0.0024
        16.3935,   4.6436,   0.1690,   1.0003,   0.0025
        16.3970,   4.6341,   0.1642,   1.0016,   0.0027
        16.4005,   4.6294,   0.1388,   0.9968,  -0.0029
        16.4040,   4.6400,   0.1466,   0.9998,  -0.0033
        16.4075,   4.6400,   0.1453,   1.0013,  -0.0012
        16.4110,   4.6344,   0.1487,   0.9996,   0.0034
        16.4145,   4.6377,   0.1411,   0.9991,  -0.0010
        16.4180,   4.6436,   0.1545,   1.0003,   0.0009
        16.4215,   4.6396,   0.1507,   1.0000,   0.0020
        16.4250,   4.6383,   0.1531,   0.9972,   0.0016
        16.4285,   4.6340,   0.1478,   0.9978,   0.0026
        16.4320,   4.6391,   0.1423,   0.9977,  -0.0008
        16.4355,   4.6260,   0.1503,   0.9942,   0.0024
        16.4390,   4.6514,   0.1550,   1.0022,   0.0001
        16.4425,   4.6521,   0.1492,   1.0026,   0.0010
        16.4460,   4.6310,   0.1616,   0.9969,   0.0029
        16.4495,   4.6383,   0.1626,   0.9964,   0.0041
        16.4530,   4.6377,   0.1667,   0.9972,   0.0043
        16.4565,   4.6398,   0.1821,   0.9997,   0.0101
        16.4600,   4.6534,   0.1611,   1.0029,   0.0006
        16.4635,   4.6334,   0.1582,   0.9975,   0.0001
        16.4670,   4.6431,   0.1504,   0.9998,  -0.0019
        16.4705,   4.6305,   0.1534,   0.9935,  -0.0020
        16.4740,   4.6313,   0.1555,   0.9945,  -0.0000
        16.4775,   4.6268,   0.1551,   0.9958,  -0.0028
        16.4810,   4.6321,   0.1400,   0.9974,  -0.0072
        16.4845,   4.6324,   0.1738,   0.9959,   0.0047
        16.4880,   4.6355,   0.1566,   0.9977,  -0.0038
        16.4915,   4.6322,   0.1701,   0.9961,   0.0015
        16.4950,   4.6393,   0.1628,   0.9998,  -0.0012
        16.4985,   4.6370,   0.1632,   0.9965,  -0.0002
        16.5020,   4.6415,   0.1539,   0.9994,  -0.0024
        16.5055,   4.6443,   0.1537,   0.9999,  -0.0033
        16.5090,   4.6364,   0.1551,   1.0002,  -0.0015
        16.5125,   4.6391,   0.1601,   1.0014,  -0.0004
        16.5160,   4.6213,   0.1516,   0.9929,  -0.0031
        16.5195,   4.6339,   0.1470,   0.9966,  -0.0023
        16.5230,   4.6166,   0.1492,   0.9924,  -0.0019
        16.5265,   4.6613,   0.1553,   1.0058,  -0.0025
        16.5300,   4.6406,   0.1543,   0.9993,  -0.0001
        16.5335,   4.6315,   0.1412,   0.9944,  -0.0025
        16.5370,   4.6169,   0.1491,   0.9923,   0.0000
        16.5405,   4.6381,   0.1442,   0.9980,  -0.0019
        16.5440,   4.6221,   0.1584,   0.9940,   0.0020
        16.5475,   4.6455,   0.1631,   1.0005,   0.0023
        16.5510,   4.6429,   0.1538,   0.9985,   0.0009
        16.5545,   4.6402,   0.1558,   0.9992,   0.0020
        16.5580,   4.6205,   0.1525,   0.9925,   0.0012
        16.5615,   4.6304,   0.1398,   0.9945,  -0.0014
        16.5650,   4.6423,   0.1611,   0.9992,   0.0027
        16.5685,   4.6344,   0.1626,   0.9974,   0.0032
        16.5720,   4.6378,   0.1461,   0.9977,  -0.0011
        16.5755,   4.6469,   0.1616,   0.9983,   0.0008
        16.5790,   4.6353,   0.1516,   0.9981,   0.0011
        16.5825,   4.6430,   0.1531,   0.9974,   0.0005
        16.5860,   4.6360,   0.1539,   0.9985,   0.0011
        16.5895,   4.6365,   0.1550,   0.9981,   0.0002
        16.5930,   4.6384,   0.1517,   0.9960,  -0.0006
        16.5965,   4.6366,   0.1621,   0.9975,   0.0007
        16.6000,   4.6364,   0.1568,   0.9964,  -0.0018
        16.6035,   4.6418,   0.1584,   1.0005,   0.0017
        16.6070,   4.6356,   0.1665,   1.0008,   0.0024
        16.6105,   4.6244,   0.1549,   0.9988,   0.0019
        16.6140,   4.6447,   0.1550,   1.0020,  -0.0031
        16.6175,   4.6496,   0.1817,   1.0010,   0.0043
        16.6210,   4.6321,   0.1523,   0.9980,  -0.0021
        16.6245,   4.6270,   0.1579,   0.9999,  -0.0021
        16.6280,   4.6297,   0.1606,   0.9974,   0.0042
        16.6315,   4.6338,   0.1696,   0.9955,   0.0045
        16.6350,   4.6251,   0.1567,   0.9962,  -0.0016
        16.6385,   4.6536,   0.1669,   1.0046,   0.0029
        16.6420,   4.6422,   0.1573,   1.0016,  -0.0022
        16.6455,   4.6372,   0.1599,   1.0001,  -0.0010
        16.6490,   4.6535,   0.1424,   1.0011,  -0.0031
        16.6525,   4.6516,   0.1656,   1.0040,  -0.0001
        16.6560,   4.6291,   0.1685,   0.9972,   0.0057
        16.6595,   4.6257,   0.1635,   0.9987,   0.0005
        16.6630,   4.6278,   0.1574,   0.9957,  -0.0048
        16.6665,   4.6282,   0.1609,   1.0002,  -0.0012
        16.6700,   4.6362,   0.1573,   1.0002,  -0.0021
        16.6735,   4.6359,   0.1574,   0.9988,  -0.0011
        16.6770,   4.6302,   0.1544,   0.9986,  -0.0038
        16.6805,   4.6416,   0.1540,   0.9961,   0.0016
        16.6840,   4.6362,   0.1573,   0.9949,   0.0007
        16.6875,   4.6394,   0.1469,   0.9978,  -0.0005
        16.6910,   4.6323,   0.1582,   1.0007,   0.0054
        16.6945,   4.6346,   0.1583,   0.9983,   0.0024
        16.6980,   4.6435,   0.1613,   1.0010,   0.0045
        16.7015,   4.6356,   0.1554,   0.9992,   0.0002
        16.7050,   4.6462,   0.1377,   0.9970,  -0.0041
        16.7085,   4.6626,   0.1583,   0.9996,  -0.0003
        16.7120,   4.6135,   0.1500,   0.9939,  -0.0057
        16.7155,   4.6428,   0.1369,   0.9969,  -0.0037
        16.7190,   4.6160,   0.1660,   0.9910,  -0.0048
        16.7225,   4.6532,   0.1334,   0.9946,  -0.0041
        16.7260,   4.6270,   0.1747,   0.9978,   0.0066
        16.7295,   4.6413,   0.1494,   0.9983,  -0.0033
        16.7330,   4.6280,   0.1312,   0.9945,  -0.0058
        16.7365,   4.6540,   0.1490,   1.0028,   0.0005
        16.7400,   4.6443,   0.1416,   0.9965,  -0.0012
        16.7435,   4.6467,   0.1570,   0.9968,   0.0029
        16.7470,   4.6382,   0.1632,   0.9905,  -0.0020
        16.7505,   4.6330,   0.1487,   1.0000,  -0.0015
        16.7540,   4.6354,   0.1589,   0.9980,   0.0015
        16.7575,   4.6398,   0.1435,   0.9936,  -0.0018
        16.7610,   4.6419,   0.1557,   0.9974,  -0.0006
        16.7645,   4.6280,   0.1557,   0.9996,  -0.0008
        16.7680,   4.6294,   0.1509,   0.9984,   0.0009
        16.7715,   4.6254,   0.1639,   0.9944,   0.0008
        16.7750,   4.6417,   0.1867,   1.0001,  -0.0038
        16.7785,   4.6355,   0.1583,   0.9924,   0.0006
        16.7820,   4.6122,   0.1436,   0.9936,   0.0007
        16.7855,   4.6372,   0.1805,   0.9986,   0.0015
        16.7890,   4.6383,   0.1416,   0.9983,  -0.0026
        16.7925,   4.6488,   0.1888,   1.0023,   0.0017
        16.7960,   4.6484,   0.1463,   0.9957,  -0.0056
        16.7995,   4.6534,   0.1801,   1.0000,   0.0002
        16.8030,   4.6451,   0.1682,   0.9981,  -0.0003
        16.8065,   4.6016,   0.1434,   0.9951,  -0.0086
        16.8100,   4.6275,   0.1483,   0.9981,  -0.0027
        16.8135,   4.6281,   0.1868,   0.9961,   0.0032
        16.8170,   4.6349,   0.1544,   0.9990,   0.0000
        16.8205,   4.6354,   0.1649,   0.9985,   0.0001
        16.8240,   4.6455,   0.1406,   1.0061,  -0.0011
        16.8275,   4.6440,   0.1599,   0.9986,  -0.0016
        16.8310,   4.6322,   0.1640,   0.9958,   0.0006
        16.8345,   4.6409,   0.1502,   1.0001,  -0.0031
        16.8380,   4.6355,   0.1609,   1.0026,   0.0001
        16.8415,   4.6497,   0.1418,   0.9993,   0.0031
        16.8450,   4.6433,   0.1556,   1.0014,  -0.0007
        16.8485,   4.6349,   0.1576,   1.0001,  -0.0029
        16.8520,   4.6348,   0.1482,   0.9967,   0.0027
        16.8555,   4.6335,   0.1548,   0.9995,   0.0036
        16.8590,   4.6268,   0.1419,   0.9986,   0.0023
        16.8625,   4.6425,   0.1526,   0.9977,   0.0009
        16.8660,   4.6343,   0.1627,   0.9986,  -0.0025
        16.8695,   4.6299,   0.1502,   1.0004,   0.0001
        16.8730,   4.6338,   0.1598,   0.9955,   0.0003
        16.8765,   4.6355,   0.1630,   1.0005,   0.0066
        16.8800,   4.6386,   0.1415,   0.9976,  -0.0057
        16.8835,   4.6242,   0.1362,   0.9986,  -0.0001
        16.8870,   4.6170,   0.1422,   0.9967,   0.0020
        16.8905,   4.6570,   0.1292,   1.0037,   0.0032
        16.8940,   4.6208,   0.1448,   0.9986,  -0.0011
        16.8975,   4.6351,   0.1596,   0.9940,   0.0043
        16.9010,   4.6319,   0.1684,   0.9936,  -0.0025
        16.9045,   4.6496,   0.1535,   0.9969,   0.0028
        16.9080,   4.6273,   0.1455,   1.0000,  -0.0070
        16.9115,   4.6350,   0.1606,   0.9964,   0.0028
        16.9150,   4.6201,   0.1618,   0.9935,  -0.0060
        16.9185,   4.6265,   0.1603,   1.0015,  -0.0014
        16.9220,   4.6297,   0.1476,   0.9994,   0.0087
        16.9255,   4.6196,   0.1575,   0.9989,   0.0030
        16.9290,   4.6271,   0.1619,   0.9989,   0.0014
        16.9325,   4.6245,   0.1747,   1.0040,  -0.0028
        16.9360,   4.6195,   0.1547,   1.0005,   0.0017
        16.9395,   4.6130,   0.1726,   1.0044,   0.0007
        16.9430,   4.6243,   0.1607,   0.9997,  -0.0018
        16.9465,   4.6477,   0.1579,   0.9991,  -0.0006
        16.9500,   4.6330,   0.1820,   1.0058,  -0.0004
        16.9535,   4.6348,   0.1655,   1.0005,  -0.0019
        16.9570,   4.6202,   0.1431,   1.0009,  -0.0001
        16.9605,   4.6430,   0.1494,   1.0011,  -0.0007
        16.9640,   4.6428,   0.1707,   1.0021,   0.0041
        16.9675,   4.6312,   0.1848,   0.9996,   0.0028
        16.9710,   4.6517,   0.1503,   1.0015,  -0.0034
        16.9745,   4.6375,   0.1670,   0.9984,   0.0017
        16.9780,   4.6145,   0.1461,   0.9995,   0.0017
        16.9815,   4.6303,   0.1574,   0.9968,  -0.0015
        16.9850,   4.6749,   0.1483,   1.0004,  -0.0013
        16.9885,   4.6309,   0.1693,   0.9932,  -0.0017
        16.9920,   4.6424,   0.1550,   0.9984,   0.0044
        16.9955,   4.6350,   0.1622,   0.9991,   0.0028
        16.9990,   4.6447,   0.1532,   0.9956,   0.0004
        17.0025,   4.6322,   0.1651,   0.9975,   0.0042
        17.0060,   4.6364,   0.1635,   0.9993,   0.0025
        17.0095,   4.6345,   0.1575,   0.9997,   0.0034
        17.0130,   4.6280,   0.1598,   1.0006,   0.0008
        17.0165,   4.6457,   0.1594,   0.9985,  -0.0031
        17.0200,   4.6468,   0.1629,   0.9980,  -0.0034
        17.0235,   4.6312,   0.1466,   0.9951,   0.0036
        17.0270,   4.6357,   0.1441,   0.9933,   0.0017
        17.0305,   4.6381,   0.1360,   0.9969,   0.0000
        17.0340,   4.6368,   0.1733,   0.9993,   0.0016
        17.0375,   4.6325,   0.1746,   0.9995,   0.0008
        17.0410,   4.6446,   0.1461,   0.9967,  -0.0014
        17.0445,   4.6440,   0.1640,   0.9985,   0.0032
        17.0480,   4.6230,   0.1269,   1.0019,  -0.0034
        17.0515,   4.6357,   0.1647,   0.9935,  -0.0021
        17.0550,   4.6168,   0.1544,   0.9920,   0.0025
        17.0585,   4.6137,   0.1517,   0.9993,  -0.0018
        17.0620,   4.6329,   0.1670,   0.9977,   0.0028
        17.0655,   4.6268,   0.1572,   0.9983,  -0.0038
        17.0690,   4.6279,   0.1662,   0.9961,   0.0055
        17.0725,   4.6186,   0.1629,   0.9978,  -0.0055
        17.0760,   4.6275,   0.1567,   1.0028,   0.0023
        17.0795,   4.6253,   0.1563,   1.0040,  -0.0052
        17.0830,   4.6253,   0.1725,   0.9942,  -0.0008
        17.0865,   4.6394,   0.1619,   1.0005,   0.0000
        17.0900,   4.6360,   0.1621,   0.9964,  -0.0026
        17.0935,   4.6278,   0.1612,   1.0036,   0.0011
        17.0970,   4.6298,   0.1653,   1.0013,   0.0031
        17.1005,   4.6339,   0.1567,   0.9954,  -0.0022
        17.1040,   4.6292,   0.1623,   0.9977,   0.0024
        17.1075,   4.6355,   0.1681,   0.9973,  -0.0031
        17.1110,   4.6206,   0.1612,   1.0000,  -0.0003
        17.1145,   4.6367,   0.1484,   0.9957,  -0.0033
        17.1180,   4.6543,   0.1466,   0.9992,  -0.0066
        17.1215,   4.6455,   0.1725,   0.9982,  -0.0051
        17.1250,   4.6128,   0.1919,   0.9954,   0.0014
        17.1285,   4.6288,   0.1437,   0.9992,  -0.0074
        17.1320,   4.6229,   0.1822,   1.0014,  -0.0047
        17.1355,   4.6071,   0.1781,   1.0002,  -0.0022
        17.1390,   4.6555,   0.1494,   1.0011,  -0.0044
        17.1425,   4.6387,   0.1929,   0.9993,  -0.0009
        17.1460,   4.6567,   0.1650,   1.0044,   0.0009
        17.1495,   4.6248,   0.1650,   1.0008,  -0.0007
        17.1530,   4.6120,   0.1716,   0.9959,  -0.0014
        17.1565,   4.6323,   0.1666,   0.9990,  -0.0014
        17.1600,   4.6235,   0.1632,   0.9999,   0.0012
        17.1635,   4.6595,   0.1758,   0.9981,   0.0046
        17.1670,   4.6207,   0.1607,   0.9989,  -0.0026
        17.1705,   4.6355,   0.1420,   1.0019,  -0.0015
        17.1740,   4.6311,   0.1690,   0.9967,  -0.0010
        17.1775,   4.6246,   0.1532,   1.0014,  -0.0017
        17.1810,   4.6328,   0.1785,   0.9966,   0.0015
        17.1845,   4.6284,   0.1642,   1.0011,   0.0011
        17.1880,   4.6361,   0.1478,   0.9976,  -0.0018
        17.1915,   4.6222,   0.1455,   0.9990,   0.0034
        17.1950,   4.6401,   0.1402,   0.9952,  -0.0013
        17.1985,   4.6373,   0.1573,   0.9969,   0.0005
        17.2020,   4.6376,   0.1365,   0.9950,  -0.0010
        17.2055,   4.6287,   0.1650,   0.9995,   0.0040
        17.2090,   4.6315,   0.1495,   1.0001,  -0.0007
        17.2125,   4.6280,   0.1550,   1.0002,   0.0040
        17.2160,   4.6331,   0.1679,   0.9995,   0.0032
        17.2195,   4.6352,   0.1503,   0.9916,  -0.0007
        17.2230,   4.6159,   0.1549,   0.9982,  -0.0009
        17.2265,   4.6508,   0.1734,   0.9999,   0.0027
        17.2300,   4.6219,   0.1571,   0.9936,   0.0019
        17.2335,   4.6373,   0.1549,   0.9980,   0.0006
        17.2370,   4.6487,   0.1462,   1.0076,  -0.0064
        17.2405,   4.6172,   0.1733,   0.9894,  -0.0013
        17.2440,   4.6249,   0.1610,   1.0000,   0.0016
        17.2475,   4.6276,   0.1661,   0.9996,   0.0001
        17.2510,   4.6270,   0.1688,   0.9932,   0.0023
        17.2545,   4.6447,   0.1611,   0.9953,  -0.0037
        17.2580,   4.6261,   0.1563,   1.0008,  -0.0043
        17.2615,   4.6218,   0.1651,   1.0082,  -0.0065
        17.2650,   4.6186,   0.1659,   1.0009,  -0.0070
        17.2685,   4.6236,   0.1623,   0.9886,   0.0015
        17.2720,   4.6253,   0.1664,   0.9966,  -0.0082
        17.2755,   4.6235,   0.1713,   1.0031,  -0.0041
        17.2790,   4.6262,   0.1730,   1.0027,  -0.0050
        17.2825,   4.6101,   0.1876,   1.0046,  -0.0012
        17.2860,   4.6184,   0.1721,   1.0015,  -0.0048
        17.2895,   4.6265,   0.1535,   0.9986,  -0.0029
        17.2930,   4.6115,   0.1519,   0.9996,  -0.0025
        17.2965,   4.6190,   0.1938,   1.0010,  -0.0033
        17.3000,   4.6024,   0.1668,   0.9960,  -0.0003
        17.3035,   4.6446,   0.1317,   1.0039,  -0.0052
        17.3070,   4.6193,   0.1717,   1.0019,  -0.0051
        17.3105,   4.6253,   0.1653,   1.0023,  -0.0011
        17.3140,   4.6435,   0.1540,   0.9987,  -0.0028
        17.3175,   4.6118,   0.1644,   1.0004,   0.0001
        17.3210,   4.6109,   0.1742,   0.9999,   0.0043
        17.3245,   4.6063,   0.1417,   0.9981,   0.0035
        17.3280,   4.6283,   0.1554,   0.9981,   0.0011
        17.3315,   4.6120,   0.1418,   0.9966,  -0.0036
        17.3350,   4.6472,   0.1506,   1.0026,  -0.0018
        17.3385,   4.6217,   0.1571,   0.9971,  -0.0003
        17.3420,   4.6325,   0.1791,   0.9991,   0.0055
        17.3455,   4.6360,   0.1572,   1.0002,  -0.0013
        17.3490,   4.6320,   0.1523,   0.9977,  -0.0005
        17.3525,   4.6308,   0.1526,   0.9988,   0.0002
        17.3560,   4.6253,   0.1551,   0.9969,   0.0022
        17.3595,   4.6287,   0.1468,   0.9980,  -0.0002
        17.3630,   4.6300,   0.1572,   1.0007,  -0.0000
        17.3665,   4.6360,   0.1563,   0.9989,  -0.0010
        17.3700,   4.6363,   0.1672,   0.9999,  -0.0020
        17.3735,   4.6248,   0.1594,   0.9982,  -0.0004
        17.3770,   4.6259,   0.1467,   0.9960,   0.0014
        17.3805,   4.6251,   0.1548,   0.9964,  -0.0030
        17.3840,   4.6306,   0.1682,   0.9984,   0.0022
        17.3875,   4.6243,   0.1602,   0.9973,   0.0007
        17.3910,   4.6221,   0.1586,   1.0005,   0.0023
        17.3945,   4.6120,   0.1401,   0.9942,  -0.0037
        17.3980,   4.6313,   0.1496,   0.9981,  -0.0005
        17.4015,   4.6215,   0.1466,   0.9990,  -0.0011
        17.4050,   4.6255,   0.1744,   0.9955,   0.0008
        17.4085,   4.6251,   0.1657,   0.9978,   0.0034
        17.4120,   4.6154,   0.1644,   0.9962,   0.0012
        17.4155,   4.6367,   0.1444,   1.0020,  -0.0034
        17.4190,   4.6126,   0.1508,   0.9965,  -0.0065
        17.4225,   4.6318,   0.1649,   1.0006,   0.0010
        17.4260,   4.6126,   0.1383,   0.9979,  -0.0041
        17.4295,   4.6342,   0.1536,   1.0026,   0.0014
        17.4330,   4.6138,   0.1542,   0.9960,  -0.0007
        17.4365,   4.6194,   0.1426,   0.9997,  -0.0037
        17.4400,   4.6257,   0.1569,   0.9987,   0.0029
        17.4435,   4.6263,   0.1444,   0.9963,  -0.0020
        17.4470,   4.6250,   0.1517,   1.0014,   0.0004
        17.4505,   4.6302,   0.1456,   1.0009,   0.0012
        17.4540,   4.6291,   0.1510,   0.9997,   0.0005
        17.4575,   4.6322,   0.1560,   1.0000,   0.0016
        17.4610,   4.6309,   0.1534,   0.9984,  -0.0001
        17.4645,   4.6271,   0.1564,   0.9989,   0.0019
        17.4680,   4.6256,   0.1454,   0.9980,  -0.0028
        17.4715,   4.6371,   0.1553,   1.0008,   0.0008
        17.4750,   4.6158,   0.1584,   0.9947,   0.0026
        17.4785,   4.6321,   0.1824,   1.0014,   0.0052
        17.4820,   4.6272,   0.1658,   0.9989,   0.0029
        17.4855,   4.6186,   0.1505,   0.9956,  -0.0002
        17.4890,   4.6429,   0.1550,   1.0020,  -0.0033
        17.4925,   4.6343,   0.1411,   0.9980,  -0.0042
        17.4960,   4.6357,   0.1464,   1.0008,  -0.0023
        17.4995,   4.6337,   0.1586,   0.9989,   0.0013
        17.5030,   4.6206,   0.1692,   0.9981,   0.0012
        17.5065,   4.6220,   0.1372,   0.9980,  -0.0043
        17.5100,   4.6256,   0.1405,   0.9979,  -0.0043
        17.5135,   4.6258,   0.1467,   0.9988,  -0.0019
        17.5170,   4.6207,   0.1660,   0.9973,   0.0036
        17.5205,   4.6210,   0.1363,   0.9970,  -0.0038
        17.5240,   4.6414,   0.1469,   1.0015,  -0.0019
        17.5275,   4.6332,   0.1608,   1.0002,   0.0018
        17.5310,   4.6156,   0.1502,   0.9973,  -0.0005
        17.5345,   4.6359,   0.1435,   1.0005,  -0.0014
        17.5380,   4.6222,   0.1507,   0.9992,   0.0006
        17.5415,   4.6233,   0.1555,   0.9977,   0.0014
        17.5450,   4.6309,   0.1432,   1.0007,   0.0002
        17.5485,   4.6328,   0.1335,   0.9995,  -0.0015
        17.5520,   4.6280,   0.1503,   0.9993,   0.0014
        17.5555,   4.6345,   0.1449,   0.9983,   0.0025
        17.5590,   4.6251,   0.1430,   0.9972,   0.0004
        17.5625,   4.6233,   0.1425,   0.9982,   0.0017
        17.5660,   4.6048,   0.1418,   0.9942,   0.0016
        17.5695,   4.6328,   0.1560,   0.9970,   0.0044
        17.5730,   4.6459,   0.1405,   1.0007,  -0.0014
        17.5765,   4.6401,   0.1701,   1.0015,   0.0068
        17.5800,   4.6432,   0.1522,   1.0015,   0.0023
        17.5835,   4.6482,   0.1658,   1.0031,   0.0043
        17.5870,   4.6358,   0.1594,   1.0000,   0.0044
        17.5905,   4.6465,   0.1346,   1.0030,  -0.0050
        17.5940,   4.6275,   0.1535,   0.9984,   0.0030
        17.5975,   4.6320,   0.1621,   0.9978,   0.0042
        17.6010,   4.6257,   0.1574,   0.9960,   0.0039
        17.6045,   4.6267,   0.1421,   0.9952,  -0.0004
        17.6080,   4.6231,   0.1613,   0.9967,   0.0030
        17.6115,   4.6298,   0.1637,   0.9982,   0.0038
        17.6150,   4.6284,   0.1620,   0.9979,   0.0005
        17.6185,   4.6239,   0.1582,   0.9949,   0.0011
        17.6220,   4.6239,   0.1660,   0.9959,   0.0037
        17.6255,   4.6306,   0.1608,   0.9981,   0.0003
        17.6290,   4.6282,   0.1609,   0.9974,  -0.0018
        17.6325,   4.6248,   0.1631,   0.9990,   0.0004
        17.6360,   4.6208,   0.1600,   0.9969,  -0.0006
        17.6395,   4.6234,   0.1633,   0.9972,   0.0001
        17.6430,   4.6326,   0.1451,   0.9994,  -0.0049
        17.6465,   4.6292,   0.1684,   1.0003,   0.0006
        17.6500,   4.6290,   0.1621,   0.9988,  -0.0004
        17.6535,   4.6250,   0.1719,   1.0002,   0.0010
        17.6570,   4.6169,   0.1636,   0.9988,  -0.0006
        17.6605,   4.6458,   0.1614,   1.0046,  -0.0012
        17.6640,   4.6230,   0.1516,   0.9988,  -0.0035
        17.6675,   4.5937,   0.1421,   0.9933,  -0.0021
        17.6710,   4.6227,   0.1545,   0.9987,  -0.0037
        17.6745,   4.6162,   0.1723,   0.9968,   0.0009
        17.6780,   4.6342,   0.1485,   1.0003,  -0.0035
        17.6815,   4.6304,   0.1734,   1.0010,   0.0022
        17.6850,   4.6265,   0.1577,   0.9977,  -0.0007
        17.6885,   4.6257,   0.1599,   0.9980,   0.0001
        17.6920,   4.6429,   0.1368,   0.9995,  -0.0065
        17.6955,   4.6249,   0.1422,   1.0007,  -0.0026
        17.6990,   4.6326,   0.1686,   0.9977,   0.0003
        17.7025,   4.6281,   0.1551,   0.9988,  -0.0001
        17.7060,   4.6244,   0.1530,   0.9986,   0.0005
        17.7095,   4.6225,   0.1590,   0.9997,  -0.0015
        17.7130,   4.6260,   0.1534,   1.0012,   0.0022
        17.7165,   4.6263,   0.1611,   0.9993,   0.0019
        17.7200,   4.6284,   0.1585,   0.9973,   0.0027
        17.7235,   4.6237,   0.1531,   0.9984,  -0.0027
        17.7270,   4.6178,   0.1544,   0.9960,   0.0008
        17.7305,   4.6244,   0.1525,   0.9963,   0.0031
        17.7340,   4.6409,   0.1414,   0.9995,   0.0003
        17.7375,   4.6303,   0.1468,   0.9998,  -0.0034
        17.7410,   4.6330,   0.1612,   1.0004,   0.0031
        17.7445,   4.6216,   0.1766,   0.9978,   0.0036
        17.7480,   4.6305,   0.1497,   0.9981,  -0.0003
        17.7515,   4.6269,   0.1582,   0.9980,  -0.0012
        17.7550,   4.6227,   0.1465,   0.9958,   0.0015
        17.7585,   4.6328,   0.1292,   1.0028,  -0.0036
        17.7620,   4.6201,   0.1597,   0.9952,   0.0016
        17.7655,   4.6149,   0.1438,   0.9963,  -0.0018
        17.7690,   4.6057,   0.1638,   0.9917,  -0.0027
        17.7725,   4.6116,   0.1451,   0.9964,   0.0006
        17.7760,   4.6193,   0.1442,   0.9962,  -0.0035
        17.7795,   4.6034,   0.1678,   0.9919,  -0.0002
        17.7830,   4.6159,   0.1711,   0.9971,   0.0019
        17.7865,   4.6164,   0.1603,   0.9974,  -0.0003
        17.7900,   4.6331,   0.1688,   0.9985,   0.0039
        17.7935,   4.6167,   0.1584,   0.9989,  -0.0009
        17.7970,   4.6233,   0.1627,   0.9971,  -0.0014
        17.8005,   4.6213,   0.1521,   0.9958,  -0.0018
        17.8040,   4.6253,   0.1653,   0.9975,  -0.0020
        17.8075,   4.6215,   0.1684,   1.0011,  -0.0007
        17.8110,   4.6199,   0.1763,   1.0002,  -0.0000
        17.8145,   4.6094,   0.1612,   1.0008,  -0.0026
        17.8180,   4.6144,   0.1607,   1.0002,  -0.0011
        17.8215,   4.6187,   0.1660,   0.9987,   0.0017
        17.8250,   4.6214,   0.1637,   0.9975,  -0.0024
        17.8285,   4.6079,   0.1776,   0.9990,  -0.0006
        17.8320,   4.6426,   0.1513,   0.9994,  -0.0078
        17.8355,   4.6228,   0.1710,   1.0003,  -0.0001
        17.8390,   4.6110,   0.1682,   0.9986,   0.0009
        17.8425,   4.6309,   0.1850,   0.9968,   0.0012
        17.8460,   4.6538,   0.1422,   1.0063,  -0.0007
        17.8495,   4.6303,   0.1434,   1.0013,  -0.0009
        17.8530,   4.6172,   0.1413,   0.9973,  -0.0042
        17.8565,   4.6384,   0.1518,   1.0033,  -0.0013
        17.8600,   4.6285,   0.1404,   0.9993,  -0.0034
        17.8635,   4.6160,   0.1626,   0.9966,  -0.0004
        17.8670,   4.6191,   0.1675,   0.9989,   0.0044
        17.8705,   4.6351,   0.1476,   0.9953,  -0.0021
        17.8740,   4.6230,   0.1636,   0.9976,  -0.0006
        17.8775,   4.6145,   0.1560,   1.0004,   0.0033
        17.8810,   4.6232,   0.1569,   0.9993,   0.0003
        17.8845,   4.6314,   0.1578,   0.9998,  -0.0008
        17.8880,   4.6215,   0.1513,   0.9967,   0.0022
        17.8915,   4.6219,   0.1632,   1.0007,   0.0020
        17.8950,   4.6304,   0.1465,   0.9979,   0.0027
        17.8985,   4.6358,   0.1567,   0.9982,   0.0005
        17.9020,   4.6157,   0.1432,   0.9971,   0.0054
        17.9055,   4.6158,   0.1621,   1.0003,   0.0017
        17.9090,   4.6332,   0.1646,   0.9982,   0.0024
        17.9125,   4.6247,   0.1649,   0.9973,   0.0025
        17.9160,   4.6240,   0.1577,   0.9977,  -0.0003
        17.9195,   4.6179,   0.1538,   0.9942,   0.0014
        17.9230,   4.6213,   0.1568,   0.9959,  -0.0001
        17.9265,   4.6201,   0.1539,   1.0002,   0.0003
        17.9300,   4.6456,   0.1537,   1.0014,  -0.0019
        17.9335,   4.6306,   0.1451,   0.9963,  -0.0040
        17.9370,   4.5960,   0.1554,   0.9970,  -0.0070
        17.9405,   4.6125,   0.1491,   0.9998,  -0.0018
        17.9440,   4.6133,   0.1719,   0.9970,   0.0007
        17.9475,   4.6292,   0.1538,   0.9977,  -0.0036
        17.9510,   4.6186,   0.1402,   0.9997,  -0.0003
        17.9545,   4.6148,   0.1515,   1.0026,   0.0006
        17.9580,   4.6243,   0.1585,   0.9988,   0.0018
        17.9615,   4.6263,   0.1712,   1.0011,   0.0025
        17.9650,   4.6078,   0.1649,   1.0012,  -0.0015
        17.9685,   4.6025,   0.1607,   1.0040,  -0.0038
        17.9720,   4.6202,   0.1533,   1.0007,   0.0021
        17.9755,   4.6281,   0.1701,   1.0021,  -0.0031
        17.9790,   4.6190,   0.1510,   0.9997,   0.0004
        17.9825,   4.6208,   0.1451,   1.0007,  -0.0009
        17.9860,   4.6364,   0.1667,   1.0026,  -0.0027
        17.9895,   4.6176,   0.1574,   0.9998,   0.0021
        17.9930,   4.6387,   0.1472,   0.9988,  -0.0033
        17.9965,   4.6017,   0.1617,   1.0012,   0.0006
        18.0000,   4.6289,   0.1761,   1.0016,  -0.0001

